* Sea-Bird SBE 9 Data File:
* FileName = C:\Users\CTD-User\Desktop\MAR440\Station 4 210921.hex
* Software Version Seasave V 7.26.2.13
* Temperature SN = 6313
* Conductivity SN = 4758
* Number of Bytes Per Scan = 30
* Number of Voltage Words = 4
* Number of Scans Averaged by the Deck Unit = 1
* System UpLoad Time = Sep 21 2021 11:52:02
* SBE 11plus V 5.1d
* number of scans to average = 1
* pressure baud rate = 9600
* NMEA baud rate = 4800
* GPIB address = 1
* advance primary conductivity  0.073 seconds
* advance secondary conductivity  0.073 seconds
* S>
** Ship:
** Station:
** Operator:
* System UTC = Sep 21 2021 09:52:02
# nquan = 11
# nvalues = 963                         
# units = specified
# name 0 = scan: Scan Count
# name 1 = prDM: Pressure, Digiquartz [db]
# name 2 = t090C: Temperature [ITS-90, deg C]
# name 3 = t190C: Temperature, 2 [ITS-90, deg C]
# name 4 = c0S/m: Conductivity [S/m]
# name 5 = c1S/m: Conductivity, 2 [S/m]
# name 6 = sbeox0V: Oxygen raw, SBE 43 [V]
# name 7 = sbeox1V: Oxygen raw, SBE 43, 2 [V]
# name 8 = flECO-AFL: Fluorescence, WET Labs ECO-AFL/FL [mg/m^3]
# name 9 = upoly0: Upoly 0, Turbidity
# name 10 = flag:  0.000e+00
# span 0 =          1,        963       
# span 1 =      0.481,     10.723       
# span 2 =    11.6141,    15.3196       
# span 3 =    11.6112,    15.1462       
# span 4 =  -0.001126,   2.798481       
# span 5 =   0.025711,   2.805571       
# span 6 =     2.2466,     3.1600       
# span 7 =     2.1734,     2.9280       
# span 8 =     0.0033,     0.0317       
# span 9 =  0.0805824,  0.2378474       
# span 10 = 0.0000e+00, 0.0000e+00      
# interval = seconds: 0.0416667
# start_time = Sep 21 2021 09:52:02 [System UTC, header]
# bad_flag = -9.990e-29
# <Sensors count="13" >
#   <sensor Channel="1" >
#     <!-- Frequency 0, Temperature -->
#     <TemperatureSensor SensorID="55" >
#       <SerialNumber>6313</SerialNumber>
#       <CalibrationDate>09-Mar-18</CalibrationDate>
#       <UseG_J>1</UseG_J>
#       <A>0.00000000e+000</A>
#       <B>0.00000000e+000</B>
#       <C>0.00000000e+000</C>
#       <D>0.00000000e+000</D>
#       <F0_Old>0.000</F0_Old>
#       <G>4.35704303e-003</G>
#       <H>6.37274767e-004</H>
#       <I>2.22763328e-005</I>
#       <J>2.08152216e-006</J>
#       <F0>1000.000</F0>
#       <Slope>1.00000000</Slope>
#       <Offset>0.0000</Offset>
#     </TemperatureSensor>
#   </sensor>
#   <sensor Channel="2" >
#     <!-- Frequency 1, Conductivity -->
#     <ConductivitySensor SensorID="3" >
#       <SerialNumber>4758</SerialNumber>
#       <CalibrationDate>15-Mar-18</CalibrationDate>
#       <UseG_J>1</UseG_J>
#       <!-- Cell const and series R are applicable only for wide range sensors. -->
#       <SeriesR>0.0000</SeriesR>
#       <CellConst>2000.0000</CellConst>
#       <ConductivityType>0</ConductivityType>
#       <Coefficients equation="0" >
#         <A>0.00000000e+000</A>
#         <B>0.00000000e+000</B>
#         <C>0.00000000e+000</C>
#         <D>0.00000000e+000</D>
#         <M>0.0</M>
#         <CPcor>-9.57000000e-008</CPcor>
#       </Coefficients>
#       <Coefficients equation="1" >
#         <G>-1.00074376e+001</G>
#         <H>1.25450981e+000</H>
#         <I>7.09789702e-005</I>
#         <J>4.76788446e-005</J>
#         <CPcor>-9.57000000e-008</CPcor>
#         <CTcor>3.2500e-006</CTcor>
#         <!-- WBOTC not applicable unless ConductivityType = 1. -->
#         <WBOTC>0.00000000e+000</WBOTC>
#       </Coefficients>
#       <Slope>1.00000000</Slope>
#       <Offset>0.00000</Offset>
#     </ConductivitySensor>
#   </sensor>
#   <sensor Channel="3" >
#     <!-- Frequency 2, Pressure, Digiquartz with TC -->
#     <PressureSensor SensorID="45" >
#       <SerialNumber>0469</SerialNumber>
#       <CalibrationDate>15-Oct-10 </CalibrationDate>
#       <C1>-5.103916e+004</C1>
#       <C2>-5.848312e-001</C2>
#       <C3>1.064190e-002</C3>
#       <D1>4.421900e-002</D1>
#       <D2>0.000000e+000</D2>
#       <T1>2.997614e+001</T1>
#       <T2>-4.856324e-004</T2>
#       <T3>3.581030e-006</T3>
#       <T4>3.100110e-009</T4>
#       <Slope>1.00004801</Slope>
#       <Offset>-0.07312</Offset>
#       <T5>0.000000e+000</T5>
#       <AD590M>1.291980e-002</AD590M>
#       <AD590B>-9.336047e+000</AD590B>
#     </PressureSensor>
#   </sensor>
#   <sensor Channel="4" >
#     <!-- Frequency 3, Temperature, 2 -->
#     <TemperatureSensor SensorID="55" >
#       <SerialNumber>6314</SerialNumber>
#       <CalibrationDate>07-Mar-18</CalibrationDate>
#       <UseG_J>1</UseG_J>
#       <A>0.00000000e+000</A>
#       <B>0.00000000e+000</B>
#       <C>0.00000000e+000</C>
#       <D>0.00000000e+000</D>
#       <F0_Old>0.000</F0_Old>
#       <G>4.39394373e-003</G>
#       <H>6.43851423e-004</H>
#       <I>2.33768335e-005</I>
#       <J>2.18520633e-006</J>
#       <F0>1000.000</F0>
#       <Slope>1.00000000</Slope>
#       <Offset>0.0000</Offset>
#     </TemperatureSensor>
#   </sensor>
#   <sensor Channel="5" >
#     <!-- Frequency 4, Conductivity, 2 -->
#     <ConductivitySensor SensorID="3" >
#       <SerialNumber>4759</SerialNumber>
#       <CalibrationDate>15-Mar-18</CalibrationDate>
#       <UseG_J>1</UseG_J>
#       <!-- Cell const and series R are applicable only for wide range sensors. -->
#       <SeriesR>0.0000</SeriesR>
#       <CellConst>2000.0000</CellConst>
#       <ConductivityType>0</ConductivityType>
#       <Coefficients equation="0" >
#         <A>0.00000000e+000</A>
#         <B>0.00000000e+000</B>
#         <C>0.00000000e+000</C>
#         <D>0.00000000e+000</D>
#         <M>0.0</M>
#         <CPcor>-9.57000000e-008</CPcor>
#       </Coefficients>
#       <Coefficients equation="1" >
#         <G>-9.92655810e+000</G>
#         <H>1.22836953e+000</H>
#         <I>7.27705124e-005</I>
#         <J>4.43760579e-005</J>
#         <CPcor>-9.57000000e-008</CPcor>
#         <CTcor>3.2500e-006</CTcor>
#         <!-- WBOTC not applicable unless ConductivityType = 1. -->
#         <WBOTC>0.00000000e+000</WBOTC>
#       </Coefficients>
#       <Slope>1.00000000</Slope>
#       <Offset>0.00000</Offset>
#     </ConductivitySensor>
#   </sensor>
#   <sensor Channel="6" >
#     <!-- A/D voltage 0, Oxygen, SBE 43 -->
#     <OxygenSensor SensorID="38" >
#       <SerialNumber>3671</SerialNumber>
#       <CalibrationDate>04-Apr-18</CalibrationDate>
#       <Use2007Equation>1</Use2007Equation>
#       <CalibrationCoefficients equation="0" >
#         <!-- Coefficients for Owens-Millard equation. -->
#         <Boc>0.0000</Boc>
#         <Soc>0.0000e+000</Soc>
#         <offset>0.0000</offset>
#         <Pcor>0.00e+000</Pcor>
#         <Tcor>0.0000</Tcor>
#         <Tau>0.0</Tau>
#       </CalibrationCoefficients>
#       <CalibrationCoefficients equation="1" >
#         <!-- Coefficients for Sea-Bird equation - SBE calibration in 2007 and later. -->
#         <Soc>4.9827e-001</Soc>
#         <offset>-0.5141</offset>
#         <A>-3.6016e-003</A>
#         <B> 1.6280e-004</B>
#         <C>-2.4237e-006</C>
#         <D0> 2.5826e+000</D0>
#         <D1> 1.92634e-004</D1>
#         <D2>-4.64803e-002</D2>
#         <E> 3.6000e-002</E>
#         <Tau20> 1.4900</Tau20>
#         <H1>-3.3000e-002</H1>
#         <H2> 5.0000e+003</H2>
#         <H3> 1.4500e+003</H3>
#       </CalibrationCoefficients>
#     </OxygenSensor>
#   </sensor>
#   <sensor Channel="7" >
#     <!-- A/D voltage 1, Free -->
#   </sensor>
#   <sensor Channel="8" >
#     <!-- A/D voltage 2, Oxygen, SBE 43, 2 -->
#     <OxygenSensor SensorID="38" >
#       <SerialNumber>3752</SerialNumber>
#       <CalibrationDate>02-Nov-18</CalibrationDate>
#       <Use2007Equation>1</Use2007Equation>
#       <CalibrationCoefficients equation="0" >
#         <!-- Coefficients for Owens-Millard equation. -->
#         <Boc>0.0000</Boc>
#         <Soc>0.0000e+000</Soc>
#         <offset>0.0000</offset>
#         <Pcor>0.00e+000</Pcor>
#         <Tcor>0.0000</Tcor>
#         <Tau>0.0</Tau>
#       </CalibrationCoefficients>
#       <CalibrationCoefficients equation="1" >
#         <!-- Coefficients for Sea-Bird equation - SBE calibration in 2007 and later. -->
#         <Soc>4.2712e-001</Soc>
#         <offset>-0.4717</offset>
#         <A>-3.9718e-003</A>
#         <B> 1.9806e-004</B>
#         <C>-2.8024e-006</C>
#         <D0> 2.5826e+000</D0>
#         <D1> 1.92634e-004</D1>
#         <D2>-4.64803e-002</D2>
#         <E> 3.6000e-002</E>
#         <Tau20> 1.3800</Tau20>
#         <H1>-3.3000e-002</H1>
#         <H2> 5.0000e+003</H2>
#         <H3> 1.4500e+003</H3>
#       </CalibrationCoefficients>
#     </OxygenSensor>
#   </sensor>
#   <sensor Channel="9" >
#     <!-- A/D voltage 3, Free -->
#   </sensor>
#   <sensor Channel="10" >
#     <!-- A/D voltage 4, User Polynomial -->
#     <UserPolynomialSensor SensorID="61" >
#       <SerialNumber>FLNTURT-5033</SerialNumber>
#       <CalibrationDate>3/8/18</CalibrationDate>
#       <SensorName>Turbidity</SensorName>
#       <A0>0.06300000</A0>
#       <A1>0.40000000</A1>
#       <A2>0.00000000</A2>
#       <A3>0.00000000</A3>
#     </UserPolynomialSensor>
#   </sensor>
#   <sensor Channel="11" >
#     <!-- A/D voltage 5, Fluorometer, WET Labs ECO-AFL/FL -->
#     <FluoroWetlabECO_AFL_FL_Sensor SensorID="20" >
#       <SerialNumber>FLNTURT-5033</SerialNumber>
#       <CalibrationDate>3/8/18</CalibrationDate>
#       <ScaleFactor>1.50000000e-001</ScaleFactor>
#       <!-- Dark output -->
#       <Vblank>0.0440</Vblank>
#     </FluoroWetlabECO_AFL_FL_Sensor>
#   </sensor>
#   <sensor Channel="12" >
#     <!-- A/D voltage 6, Altimeter -->
#     <AltimeterSensor SensorID="0" >
#       <SerialNumber>74132</SerialNumber>
#       <CalibrationDate></CalibrationDate>
#       <ScaleFactor>15.000</ScaleFactor>
#       <Offset>0.000</Offset>
#     </AltimeterSensor>
#   </sensor>
#   <sensor Channel="13" >
#     <!-- A/D voltage 7, Free -->
#   </sensor>
# </Sensors>
# datcnv_date = Sep 23 2021 14:31:15, 7.26.2.14 [datcnv_vars = 10]
# datcnv_in = C:\Users\CTD-User\Desktop\MAR440\day1\Station 4 210921.hex C:\Program Files (x86)\Sea-Bird\SeasaveV7\calib\0469_210817.xmlcon
# datcnv_skipover = 0
# datcnv_ox_hysteresis_correction = yes
# celltm_date = Sep 23 2021 15:15:35, 7.26.2.14
# celltm_in = C:\Users\CTD-User\Desktop\MAR440\day1\Station 4 210921.cnv
# celltm_alpha = 0.0400, 0.0400
# celltm_tau = 8.0000, 8.0000
# celltm_temp_sensor_use_for_cond = primary, secondary
# file_type = ascii
*END*
          1      0.629    11.7120    11.7051  -0.000203   0.026349     2.9377     2.8596     0.0035  0.0815592 0.0000e+00
          2      0.596    11.7120    11.7052   0.000468   0.027367     2.9365     2.8596     0.0035  0.0815592 0.0000e+00
          3      0.571    11.7114    11.7054   0.000502   0.027020     2.9365     2.8596     0.0033  0.0815592 0.0000e+00
          4      0.596    11.7094    11.7056  -0.000575   0.026517     2.9365     2.8596     0.0035  0.0810708 0.0000e+00
          5      0.571    11.7092    11.7054  -0.000155   0.026519     2.9377     2.8596     0.0035  0.0810708 0.0000e+00
          6      0.538    11.7092    11.7044  -0.000262   0.026946     2.9365     2.8596     0.0035  0.0815592 0.0000e+00
          7      0.571    11.7084    11.7036  -0.000382   0.026606     2.9365     2.8596     0.0035  0.0810708 0.0000e+00
          8      0.596    11.7064    11.7028   0.000059   0.026445     2.9365     2.8596     0.0035  0.0810708 0.0000e+00
          9      0.571    11.7051    11.7029  -0.000184   0.026668     2.9365     2.8596     0.0033  0.0815592 0.0000e+00
         10      0.596    11.7044    11.7037  -0.000195   0.026740     2.9365     2.8596     0.0035  0.0810708 0.0000e+00
         11      0.571    11.7038    11.7039   0.000180   0.026589     2.9365     2.8596     0.0033  0.0815592 0.0000e+00
         12      0.538    11.7024    11.7037  -0.000261   0.026640     2.9377     2.8596     0.0033  0.0815592 0.0000e+00
         13      0.571    11.7024    11.7037  -0.000116   0.026828     2.9377     2.8596     0.0033  0.0815592 0.0000e+00
         14      0.538    11.7024    11.7034   0.000244   0.026664     2.9365     2.8596     0.0033  0.0815592 0.0000e+00
         15      0.629    11.7019    11.7036  -0.000242   0.026413     2.9365     2.8596     0.0033  0.0815592 0.0000e+00
         16      0.596    11.7012    11.7036   0.000041   0.026494     2.9365     2.8596     0.0033  0.0815592 0.0000e+00
         17      0.571    11.7006    11.7041   0.000152   0.026828     2.9365     2.8596     0.0035  0.0815592 0.0000e+00
         18      0.596    11.6993    11.7039  -0.000379   0.026804     2.9365     2.8596     0.0033  0.0815592 0.0000e+00
         19      0.505    11.6986    11.7041  -0.000213   0.026592     2.9365     2.8596     0.0033  0.0815592 0.0000e+00
         20      0.596    11.6976    11.7039  -0.000124   0.026575     2.9377     2.8596     0.0033  0.0815592 0.0000e+00
         21      0.571    11.6975    11.7032  -0.000424   0.026965     2.9365     2.8596     0.0033  0.0815592 0.0000e+00
         22      0.538    11.6965    11.7026   0.000099   0.026465     2.9365     2.8596     0.0033  0.0815592 0.0000e+00
         23      0.629    11.6953    11.7023   0.000017   0.026325     2.9377     2.8596     0.0033  0.0815592 0.0000e+00
         24      0.538    11.6946    11.7016  -0.000312   0.027277     2.9377     2.8596     0.0035  0.0810708 0.0000e+00
         25      0.629    11.6942    11.7006   0.000232   0.027003     2.9365     2.8596     0.0035  0.0810708 0.0000e+00
         26      0.538    11.6932    11.6997   0.000118   0.027242     2.9365     2.8596     0.0035  0.0810708 0.0000e+00
         27      0.571    11.6921    11.6986  -0.000409   0.026065     2.9365     2.8596     0.0035  0.0810708 0.0000e+00
         28      0.538    11.6909    11.6974   0.000224   0.026227     2.9377     2.8596     0.0035  0.0810708 0.0000e+00
         29      0.629    11.6904    11.6958   0.000205   0.026727     2.9365     2.8596     0.0035  0.0805824 0.0000e+00
         30      0.538    11.6889    11.6948  -0.000351   0.026615     2.9365     2.8596     0.0035  0.0810708 0.0000e+00
         31      0.629    11.6868    11.6936   0.000110   0.026114     2.9377     2.8596     0.0033  0.0805824 0.0000e+00
         32      0.538    11.6846    11.6924   0.000016   0.026803     2.9377     2.8596     0.0035  0.0810708 0.0000e+00
         33      0.571    11.6823    11.6914  -0.000463   0.026916     2.9365     2.8596     0.0035  0.0805824 0.0000e+00
         34      0.596    11.6800    11.6903  -0.000018   0.027045     2.9365     2.8596     0.0035  0.0810708 0.0000e+00
         35      0.571    11.6783    11.6890  -0.000175   0.027178     2.9365     2.8596     0.0033  0.0810708 0.0000e+00
         36      0.538    11.6774    11.6874  -0.000413   0.026385     2.9365     2.8596     0.0033  0.0810708 0.0000e+00
         37      0.571    11.6761    11.6860   0.000188   0.027035     2.9365     2.8596     0.0033  0.0810708 0.0000e+00
         38      0.538    11.6760    11.6853  -0.000331   0.025973     2.9365     2.8596     0.0033  0.0810708 0.0000e+00
         39      0.571    11.6758    11.6844  -0.000370   0.026451     2.9365     2.8596     0.0035  0.0810708 0.0000e+00
         40      0.538    11.6750    11.6831   0.000211   0.026740     2.9365     2.8596     0.0033  0.0810708 0.0000e+00
         41      0.506    11.6737    11.6818  -0.000388   0.026243     2.9377     2.8596     0.0033  0.0805824 0.0000e+00
         42      0.596    11.6722    11.6806  -0.000277   0.026773     2.9365     2.8596     0.0035  0.0805824 0.0000e+00
         43      0.571    11.6702    11.6799   0.000176   0.026680     2.9365     2.8596     0.0033  0.0810708 0.0000e+00
         44      0.596    11.6686    11.6786  -0.000322   0.026224     2.9365     2.8596     0.0033  0.0810708 0.0000e+00
         45      0.572    11.6673    11.6771  -0.000226   0.027051     2.9365     2.8596     0.0035  0.0810708 0.0000e+00
         46      0.539    11.6656    11.6758  -0.000008   0.026812     2.9365     2.8596     0.0033  0.0810708 0.0000e+00
         47      0.572    11.6637    11.6743  -0.000349   0.025903     2.9365     2.8596     0.0035  0.0810708 0.0000e+00
         48      0.539    11.6632    11.6719  -0.000129   0.027033     2.9377     2.8596     0.0035  0.0805824 0.0000e+00
         49      0.506    11.6630    11.6695   0.000256   0.026262     2.9365     2.8596     0.0033  0.0810708 0.0000e+00
         50      0.662    11.6617    11.6668  -0.000728   0.026376     2.9365     2.8596     0.0035  0.0810708 0.0000e+00
         51      0.572    11.6602    11.6643  -0.000171   0.026616     2.9365     2.8596     0.0035  0.0810708 0.0000e+00
         52      0.596    11.6591    11.6628  -0.000110   0.026191     2.9365     2.8596     0.0033  0.0815592 0.0000e+00
         53      0.629    11.6584    11.6615  -0.000619   0.026906     2.9377     2.8596     0.0035  0.0815592 0.0000e+00
         54      0.539    11.6577    11.6596   0.000130   0.026748     2.9365     2.8596     0.0033  0.0815592 0.0000e+00
         55      0.506    11.6577    11.6568  -0.000069   0.027028     2.9365     2.8596     0.0033  0.0815592 0.0000e+00
         56      0.596    11.6579    11.6528  -0.000491   0.026339     2.9365     2.8596     0.0033  0.0815592 0.0000e+00
         57      0.572    11.6577    11.6488   0.000002   0.025991     2.9365     2.8596     0.0035  0.0810708 0.0000e+00
         58      0.596    11.6573    11.6460  -0.000168   0.026188     2.9365     2.8596     0.0033  0.0815592 0.0000e+00
         59      0.572    11.6555    11.6452  -0.000585   0.026289     2.9365     2.8596     0.0033  0.0815592 0.0000e+00
         60      0.596    11.6531    11.6448   0.000065   0.026352     2.9377     2.8596     0.0033  0.0815592 0.0000e+00
         61      0.572    11.6508    11.6438  -0.000047   0.026997     2.9377     2.8596     0.0033  0.0815592 0.0000e+00
         62      0.539    11.6489    11.6425  -0.000344   0.026431     2.9365     2.8596     0.0035  0.0810708 0.0000e+00
         63      0.506    11.6483    11.6410   0.000022   0.026051     2.9365     2.8596     0.0033  0.0815592 0.0000e+00
         64      0.539    11.6469    11.6390  -0.000223   0.025839     2.9365     2.8596     0.0033  0.0815592 0.0000e+00
         65      0.572    11.6458    11.6368  -0.000597   0.026604     2.9377     2.8596     0.0035  0.0815592 0.0000e+00
         66      0.662    11.6443    11.6354  -0.000055   0.026802     2.9377     2.8596     0.0033  0.0815592 0.0000e+00
         67      0.572    11.6420    11.6352  -0.000177   0.026384     2.9365     2.8596     0.0035  0.0810708 0.0000e+00
         68      0.597    11.6403    11.6348  -0.000248   0.026708     2.9365     2.8596     0.0033  0.0815592 0.0000e+00
         69      0.572    11.6400    11.6337   0.000045   0.026215     2.9365     2.8596     0.0035  0.0810708 0.0000e+00
         70      0.481    11.6397    11.6325  -0.000520   0.026605     2.9377     2.8596     0.0035  0.0815592 0.0000e+00
         71      0.572    11.6396    11.6310  -0.000350   0.026457     2.9365     2.8596     0.0033  0.0815592 0.0000e+00
         72      0.539    11.6402    11.6289  -0.000109   0.025853     2.9365     2.8596     0.0035  0.0815592 0.0000e+00
         73      0.572    11.6403    11.6266  -0.000619   0.026674     2.9365     2.8596     0.0035  0.0815592 0.0000e+00
         74      0.663    11.6399    11.6250  -0.000141   0.025907     2.9365     2.8596     0.0033  0.0815592 0.0000e+00
         75      0.572    11.6380    11.6246   0.000166   0.027144     2.9377     2.8596     0.0035  0.0815592 0.0000e+00
         76      0.663    11.6357    11.6247  -0.000481   0.026713     2.9377     2.8596     0.0033  0.0810708 0.0000e+00
         77      0.572    11.6350    11.6239  -0.000174   0.026125     2.9365     2.8596     0.0033  0.0815592 0.0000e+00
         78      0.481    11.6348    11.6230  -0.000252   0.026267     2.9365     2.8596     0.0035  0.0815592 0.0000e+00
         79      0.630    11.6353    11.6214  -0.000559   0.026229     2.9365     2.8596     0.0035  0.0815592 0.0000e+00
         80      0.539    11.6356    11.6194  -0.000157   0.026339     2.9365     2.8596     0.0033  0.0815592 0.0000e+00
         81      0.572    11.6341    11.6181  -0.000024   0.026396     2.9365     2.8596     0.0033  0.0815592 0.0000e+00
         82      0.663    11.6306    11.6184  -0.000601   0.026521     2.9365     2.8596     0.0033  0.0815592 0.0000e+00
         83      0.572    11.6282    11.6189  -0.000005   0.026045     2.9365     2.8596     0.0035  0.0810708 0.0000e+00
         84      0.597    11.6257    11.6191  -0.000088   0.026986     2.9365     2.8596     0.0035  0.0815592 0.0000e+00
         85      0.506    11.6239    11.6187  -0.000647   0.026164     2.9377     2.8596     0.0033  0.0815592 0.0000e+00
         86      0.539    11.6217    11.6179  -0.000050   0.026669     2.9377     2.8596     0.0035  0.0815592 0.0000e+00
         87      0.572    11.6217    11.6171   0.000217   0.026066     2.9365     2.8596     0.0033  0.0815592 0.0000e+00
         88      0.539    11.6225    11.6154  -0.000470   0.026687     2.9365     2.8596     0.0035  0.0815592 0.0000e+00
         89      0.630    11.6232    11.6153  -0.000137   0.026351     2.9365     2.8596     0.0035  0.0810708 0.0000e+00
         90      0.539    11.6232    11.6157  -0.000288   0.026285     2.9365     2.8596     0.0035  0.0810708 0.0000e+00
         91      0.572    11.6237    11.6159  -0.000583   0.026273     2.9365     2.8596     0.0033  0.0815592 0.0000e+00
         92      0.539    11.6242    11.6161  -0.000059   0.026212     2.9377     2.8596     0.0033  0.0815592 0.0000e+00
         93      0.506    11.6249    11.6156  -0.000305   0.026631     2.9377     2.8596     0.0035  0.0810708 0.0000e+00
         94      0.539    11.6260    11.6154  -0.000437   0.026624     2.9365     2.8596     0.0035  0.0810708 0.0000e+00
         95      0.572    11.6265    11.6153  -0.000035   0.026674     2.9365     2.8596     0.0033  0.0815592 0.0000e+00
         96      0.539    11.6257    11.6146  -0.000325   0.025711     2.9365     2.8596     0.0033  0.0810708 0.0000e+00
         97      0.630    11.6239    11.6146  -0.000458   0.025939     2.9377     2.8596     0.0033  0.0815592 0.0000e+00
         98      0.539    11.6217    11.6151   0.000070   0.026703     2.9365     2.8596     0.0035  0.0810708 0.0000e+00
         99      0.572    11.6202    11.6154  -0.000373   0.026589     2.9365     2.8596     0.0033  0.0815592 0.0000e+00
        100      0.539    11.6202    11.6151  -0.000576   0.026817     2.9365     2.8596     0.0033  0.0815592 0.0000e+00
        101      0.572    11.6209    11.6144   0.000065   0.026671     2.9377     2.8596     0.0033  0.0810708 0.0000e+00
        102      0.539    11.6222    11.6133  -0.000580   0.026312     2.9365     2.8596     0.0035  0.0810708 0.0000e+00
        103      0.572    11.6222    11.6121  -0.000335   0.025741     2.9365     2.8596     0.0035  0.0805824 0.0000e+00
        104      0.597    11.6196    11.6116   0.000048   0.026430     2.9365     2.8596     0.0035  0.0805824 0.0000e+00
        105      0.630    11.6179    11.6119  -0.001126   0.026523     2.9365     2.8596     0.0035  0.0810708 0.0000e+00
        106      0.539    11.6161    11.6124  -0.000390   0.026339     2.9377     2.8596     0.0035  0.0810708 0.0000e+00
        107      0.572    11.6154    11.6126  -0.000172   0.026986     2.9365     2.8596     0.0035  0.0805824 0.0000e+00
        108      0.539    11.6156    11.6123  -0.000558   0.025976     2.9365     2.8596     0.0035  0.0805824 0.0000e+00
        109      0.572    11.6156    11.6119   0.000031   0.026056     2.9365     2.8596     0.0035  0.0805824 0.0000e+00
        110      0.539    11.6158    11.6112  -0.000094   0.026362     2.9377     2.8596     0.0035  0.0810708 0.0000e+00
        111      0.572    11.6164    11.6112  -0.000943   0.026726     2.9377     2.8596     0.0035  0.0810708 0.0000e+00
        112      0.597    11.6161    11.6116  -0.000337   0.026267     2.9365     2.8596     0.0035  0.0810708 0.0000e+00
        113      0.572    11.6152    11.6123  -0.000245   0.026511     2.9365     2.8596     0.0035  0.0810708 0.0000e+00
        114      0.539    11.6149    11.6129  -0.000566   0.026228     2.9365     2.8596     0.0035  0.0805824 0.0000e+00
        115      0.572    11.6151    11.6134   0.000029   0.026267     2.9377     2.8596     0.0035  0.0805824 0.0000e+00
        116      0.539    11.6156    11.6139  -0.000298   0.026759     2.9377     2.8596     0.0035  0.0805824 0.0000e+00
        117      0.572    11.6150    11.6136  -0.000644   0.026151     2.9365     2.8596     0.0035  0.0805824 0.0000e+00
        118      0.539    11.6141    11.6134  -0.000374   0.026810     2.9377     2.8596     0.0035  0.0805824 0.0000e+00
        119      0.572    11.6141    11.6132  -0.000570   0.026561     2.9365     2.8596     0.0035  0.0805824 0.0000e+00
        120      0.597    11.6147    11.6132  -0.000405   0.026328     2.9365     2.8596     0.0035  0.0810708 0.0000e+00
        121      0.572    11.6164    11.6191  -0.000102   0.027045     2.9365     2.8596     0.0035  0.0805824 0.0000e+00
        122      0.539    11.6318    11.6359  -0.000460   0.028298     2.9365     2.8596     0.0035  0.0805824 0.0000e+00
        123      0.572    11.6621    11.6590   0.007658   0.030267     2.9377     2.8596     0.0035  0.0805824 0.0000e+00
        124      0.482    11.6938    11.6837   0.021370   0.034533     2.9377     2.8596     0.0035  0.0805824 0.0000e+00
        125      0.572    11.7208    11.7039   0.024316   0.043464     2.9353     2.8596     0.0035  0.0805824 0.0000e+00
        126      0.597    11.7511    11.7256   0.023721   0.062843     2.9353     2.8596     0.0046  0.0835128 0.0000e+00
        127      0.572    11.8631    11.8558   0.023696   0.120786     2.9365     2.8596     0.0207  0.1279573 0.0000e+00
        128      0.539    12.0766    12.1979   0.060229   0.255972     2.9353     2.8596     0.0302  0.1533541 0.0000e+00
        129      0.572    12.2968    12.7253   0.134792   0.514637     2.9353     2.8596     0.0317  0.1567729 0.0000e+00
        130      0.539    12.5587    13.2299   0.199278   0.635205     2.9353     2.8596     0.0309  0.1543309 0.0000e+00
        131      0.572    12.7778    13.5697   0.193548   0.762243     2.9341     2.8596     0.0302  0.1533541 0.0000e+00
        132      0.539    12.9773    13.7748   0.161805   1.179130     2.9353     2.8596     0.0302  0.1523773 0.0000e+00
        133      0.572    13.1628    13.8962   0.149376   1.634963     2.9353     2.8596     0.0302  0.1538425 0.0000e+00
        134      0.597    13.2967    13.9674   0.139804   2.038605     2.9341     2.8596     0.0302  0.1538425 0.0000e+00
        135      0.572    13.4153    14.0087   0.155654   2.418481     2.9341     2.8596     0.0304  0.1538425 0.0000e+00
        136      0.597    13.6238    14.0369   0.207157   2.621644     2.9353     2.8596     0.0304  0.1538425 0.0000e+00
        137      0.630    13.8076    14.0541   0.352961   2.746534     2.9365     2.8596     0.0302  0.1538425 0.0000e+00
        138      0.597    13.9196    14.0656   0.969142   2.786279     2.9365     2.8596     0.0302  0.1538425 0.0000e+00
        139      0.630    13.9868    14.0733   1.416498   2.798813     2.9365     2.8596     0.0302  0.1538425 0.0000e+00
        140      0.663    14.0274    14.0782   1.529826   2.802191     2.9353     2.8596     0.0302  0.1533541 0.0000e+00
        141      0.696    14.0529    14.0829   1.898980   2.800546     2.9353     2.8596     0.0302  0.1538425 0.0000e+00
        142      0.663    14.0675    14.0856   2.283291   2.799065     2.9365     2.8596     0.0302  0.1538425 0.0000e+00
        143      0.696    14.0762    14.0878   2.395977   2.801692     2.9365     2.8596     0.0302  0.1538425 0.0000e+00
        144      0.721    14.0808    14.0896   2.650930   2.798634     2.9365     2.8596     0.0302  0.1533541 0.0000e+00
        145      0.754    14.0830    14.0916   2.546853   2.797908     2.9353     2.8596     0.0302  0.1538425 0.0000e+00
        146      0.721    14.0853    14.0936   2.415371   2.803347     2.9365     2.8596     0.0302  0.1538425 0.0000e+00
        147      0.754    14.0874    14.0953   2.551178   2.799008     2.9377     2.8596     0.0302  0.1538425 0.0000e+00
        148      0.721    14.0896    14.0972   2.741339   2.790486     2.9365     2.8596     0.0304  0.1538425 0.0000e+00
        149      0.811    14.0912    14.0988   2.788713   2.794724     2.9365     2.8596     0.0302  0.1533541 0.0000e+00
        150      0.787    14.0926    14.0995   2.793060   2.791762     2.9377     2.8596     0.0302  0.1533541 0.0000e+00
        151      0.811    14.0937    14.0988   2.797531   2.795442     2.9365     2.8596     0.0302  0.1533541 0.0000e+00
        152      0.844    14.0951    14.0985   2.798481   2.803574     2.9365     2.8596     0.0229  0.1767973 0.0000e+00
        153      0.811    14.0953    14.0985   2.798379   2.805571     2.9365     2.8596     0.0097  0.2183114 0.0000e+00
        154      0.786    14.0946    14.0984   2.798301   2.805555     2.9377     2.8596     0.0057  0.2305214 0.0000e+00
        155      0.877    14.0941    14.0983   2.798429   2.805533     2.9365     2.8596     0.0059  0.2295446 0.0000e+00
        156      0.844    14.0936    14.0988   2.798324   2.805397     2.9377     2.8596     0.0064  0.2280794 0.0000e+00
        157      0.877    14.0934    14.0992   2.798303   2.805308     2.9365     2.8608     0.0068  0.2275910 0.0000e+00
        158      0.902    14.0929    14.0993   2.798297   2.805278     2.9377     2.8608     0.0068  0.2275910 0.0000e+00
        159      0.877    14.0938    14.0993   2.798026   2.805375     2.9365     2.8608     0.0068  0.2275910 0.0000e+00
        160      0.968    14.0948    14.0993   2.797929   2.805270     2.9377     2.8608     0.0066  0.2275910 0.0000e+00
        161      0.935    14.0954    14.1002   2.797733   2.805130     2.9377     2.8620     0.0066  0.2275910 0.0000e+00
        162      0.902    14.0958    14.1008   2.797645   2.805129     2.9377     2.8620     0.0066  0.2275910 0.0000e+00
        163      1.001    14.0965    14.1014   2.797530   2.805048     2.9377     2.8620     0.0066  0.2275910 0.0000e+00
        164      0.968    14.0971    14.1019   2.797444   2.804977     2.9389     2.8620     0.0066  0.2275910 0.0000e+00
        165      1.001    14.0971    14.1017   2.797457   2.804962     2.9389     2.8632     0.0066  0.2275910 0.0000e+00
        166      1.025    14.0969    14.1014   2.797416   2.804895     2.9389     2.8632     0.0066  0.2275910 0.0000e+00
        167      1.001    14.0970    14.1012   2.797467   2.804768     2.9402     2.8645     0.0066  0.2275910 0.0000e+00
        168      1.025    14.0973    14.1007   2.797455   2.804636     2.9402     2.8645     0.0066  0.2275910 0.0000e+00
        169      1.058    14.0981    14.1005   2.797321   2.804612     2.9414     2.8657     0.0066  0.2275910 0.0000e+00
        170      1.025    14.0985    14.1011   2.797256   2.804527     2.9414     2.8657     0.0066  0.2275910 0.0000e+00
        171      1.124    14.0986    14.1012   2.797099   2.804338     2.9426     2.8669     0.0066  0.2275910 0.0000e+00
        172      1.091    14.0994    14.1012   2.797025   2.804251     2.9426     2.8681     0.0066  0.2275910 0.0000e+00
        173      1.124    14.0998    14.1008   2.796884   2.804211     2.9438     2.8694     0.0066  0.2275910 0.0000e+00
        174      1.091    14.1003    14.1012   2.796896   2.804030     2.9438     2.8694     0.0068  0.2275910 0.0000e+00
        175      1.182    14.1003    14.1012   2.796862   2.803853     2.9451     2.8706     0.0064  0.2275910 0.0000e+00
        176      1.149    14.1007    14.1012   2.796750   2.803783     2.9463     2.8718     0.0068  0.2275910 0.0000e+00
        177      1.182    14.1008    14.1014   2.796620   2.803665     2.9463     2.8730     0.0066  0.2275910 0.0000e+00
        178      1.149    14.1013    14.1012   2.796460   2.803499     2.9475     2.8742     0.0064  0.2290562 0.0000e+00
        179      1.207    14.1016    14.1008   2.796428   2.803433     2.9487     2.8755     0.0064  0.2300330 0.0000e+00
        180      1.182    14.1015    14.1008   2.796347   2.803309     2.9499     2.8755     0.0064  0.2300330 0.0000e+00
        181      1.207    14.0998    14.1005   2.796265   2.803127     2.9512     2.8779     0.0064  0.2300330 0.0000e+00
        182      1.182    14.0986    14.1004   2.796185   2.803128     2.9524     2.8791     0.0064  0.2300330 0.0000e+00
        183      1.272    14.0978    14.1002   2.796043   2.803004     2.9536     2.8803     0.0064  0.2300330 0.0000e+00
        184      1.239    14.0974    14.1000   2.795940   2.802866     2.9548     2.8816     0.0064  0.2300330 0.0000e+00
        185      1.272    14.0978    14.1002   2.795947   2.802728     2.9560     2.8828     0.0064  0.2300330 0.0000e+00
        186      1.239    14.0985    14.1002   2.795839   2.802601     2.9573     2.8840     0.0064  0.2300330 0.0000e+00
        187      1.272    14.0989    14.1004   2.795771   2.802502     2.9585     2.8852     0.0064  0.2300330 0.0000e+00
        188      1.305    14.0991    14.1008   2.795617   2.802340     2.9597     2.8864     0.0064  0.2300330 0.0000e+00
        189      1.330    14.0993    14.1008   2.795511   2.802352     2.9621     2.8889     0.0064  0.2300330 0.0000e+00
        190      1.305    14.0996    14.1011   2.795256   2.802265     2.9634     2.8901     0.0064  0.2300330 0.0000e+00
        191      1.272    14.0998    14.1017   2.795270   2.802104     2.9646     2.8926     0.0064  0.2300330 0.0000e+00
        192      1.363    14.1000    14.1020   2.795181   2.801990     2.9658     2.8938     0.0064  0.2300330 0.0000e+00
        193      1.330    14.1000    14.1020   2.795248   2.801768     2.9683     2.8962     0.0064  0.2300330 0.0000e+00
        194      1.363    14.1000    14.1022   2.795202   2.801659     2.9695     2.8974     0.0064  0.2300330 0.0000e+00
        195      1.396    14.1000    14.1020   2.795054   2.801619     2.9707     2.8987     0.0064  0.2300330 0.0000e+00
        196      1.363    14.1002    14.1022   2.794982   2.801425     2.9731     2.9011     0.0064  0.2300330 0.0000e+00
        197      1.396    14.1010    14.1024   2.794869   2.801310     2.9744     2.9035     0.0064  0.2300330 0.0000e+00
        198      1.429    14.1015    14.1026   2.794848   2.801219     2.9756     2.9048     0.0064  0.2300330 0.0000e+00
        199      1.454    14.1018    14.1029   2.794772   2.801069     2.9780     2.9072     0.0064  0.2300330 0.0000e+00
        200      1.429    14.1020    14.1029   2.794804   2.801003     2.9792     2.9084     0.0064  0.2300330 0.0000e+00
        201      1.453    14.1021    14.1030   2.794635   2.800869     2.9817     2.9109     0.0064  0.2300330 0.0000e+00
        202      1.486    14.1025    14.1029   2.794506   2.800717     2.9841     2.9133     0.0064  0.2300330 0.0000e+00
        203      1.453    14.1028    14.1030   2.794501   2.800626     2.9853     2.9145     0.0064  0.2290562 0.0000e+00
        204      1.486    14.1032    14.1032   2.794442   2.800583     2.9878     2.9158     0.0064  0.2280794 0.0000e+00
        205      1.519    14.1028    14.1035   2.794358   2.800530     2.9902     2.9182     0.0064  0.2275910 0.0000e+00
        206      1.552    14.1032    14.1039   2.794419   2.800392     2.9915     2.9194     0.0064  0.2275910 0.0000e+00
        207      1.519    14.1037    14.1041   2.794296   2.800344     2.9939     2.9219     0.0064  0.2275910 0.0000e+00
        208      1.552    14.1038    14.1041   2.794145   2.800141     2.9963     2.9231     0.0064  0.2275910 0.0000e+00
        209      1.519    14.1042    14.1042   2.793926   2.800034     2.9976     2.9243     0.0064  0.2275910 0.0000e+00
        210      1.610    14.1043    14.1039   2.793942   2.799932     3.0000     2.9255     0.0064  0.2275910 0.0000e+00
        211      1.577    14.1045    14.1044   2.793851   2.799945     3.0024     2.9267     0.0064  0.2275910 0.0000e+00
        212      1.610    14.1045    14.1047   2.793684   2.799770     3.0037     2.9267     0.0064  0.2275910 0.0000e+00
        213      1.577    14.1046    14.1047   2.793556   2.799669     3.0061     2.9267     0.0064  0.2275910 0.0000e+00
        214      1.635    14.1043    14.1047   2.793566   2.799494     3.0085     2.9280     0.0064  0.2275910 0.0000e+00
        215      1.610    14.1043    14.1047   2.793555   2.799399     3.0110     2.9267     0.0064  0.2275910 0.0000e+00
        216      1.635    14.1043    14.1047   2.793546   2.799378     3.0122     2.9267     0.0064  0.2275910 0.0000e+00
        217      1.668    14.1038    14.1047   2.793357   2.799315     3.0147     2.9267     0.0064  0.2275910 0.0000e+00
        218      1.577    14.1040    14.1049   2.793197   2.799253     3.0171     2.9255     0.0064  0.2275910 0.0000e+00
        219      1.667    14.1038    14.1053   2.793100   2.799075     3.0195     2.9243     0.0064  0.2275910 0.0000e+00
        220      1.700    14.1038    14.1056   2.793113   2.798886     3.0208     2.9231     0.0064  0.2275910 0.0000e+00
        221      1.667    14.1038    14.1057   2.792926   2.798776     3.0232     2.9206     0.0064  0.2275910 0.0000e+00
        222      1.700    14.1047    14.1057   2.792743   2.798751     3.0256     2.9194     0.0064  0.2275910 0.0000e+00
        223      1.667    14.1050    14.1061   2.792740   2.798653     3.0293     2.9170     0.0064  0.2275910 0.0000e+00
        224      1.700    14.1055    14.1061   2.792610   2.798457     3.0305     2.9145     0.0064  0.2275910 0.0000e+00
        225      1.667    14.1068    14.1061   2.792547   2.798044     3.0330     2.9109     0.0064  0.2275910 0.0000e+00
        226      1.700    14.1080    14.1061   2.792409   2.797566     3.0342     2.9084     0.0064  0.2275910 0.0000e+00
        227      1.667    14.1090    14.1059   2.792162   2.797013     3.0379     2.9048     0.0064  0.2275910 0.0000e+00
        228      1.700    14.1094    14.1059   2.792010   2.796493     3.0403     2.9011     0.0064  0.2275910 0.0000e+00
        229      1.733    14.1099    14.1056   2.791847   2.796062     3.0415     2.8974     0.0064  0.2290562 0.0000e+00
        230      1.700    14.1108    14.1056   2.791799   2.795825     3.0452     2.8938     0.0066  0.2305214 0.0000e+00
        231      1.733    14.1111    14.1054   2.791642   2.795678     3.0464     2.8901     0.0066  0.2305214 0.0000e+00
        232      1.758    14.1114    14.1051   2.791410   2.795622     3.0488     2.8852     0.0066  0.2305214 0.0000e+00
        233      1.733    14.1115    14.1049   2.791488   2.795593     3.0513     2.8816     0.0068  0.2305214 0.0000e+00
        234      1.700    14.1116    14.1044   2.791574   2.795466     3.0549     2.8767     0.0066  0.2305214 0.0000e+00
        235      1.733    14.1116    14.1044   2.791464   2.795283     3.0562     2.8730     0.0066  0.2305214 0.0000e+00
        236      1.634    14.1117    14.1044   2.791360   2.795058     3.0586     2.8669     0.0066  0.2305214 0.0000e+00
        237      1.667    14.1104    14.1046   2.791414   2.794860     3.0611     2.8632     0.0064  0.2305214 0.0000e+00
        238      1.758    14.1079    14.1044   2.791230   2.794613     3.0635     2.8584     0.0068  0.2305214 0.0000e+00
        239      1.758    14.1065    14.1044   2.791078   2.794489     3.0659     2.8535     0.0064  0.2305214 0.0000e+00
        240      1.667    14.1065    14.1044   2.790915   2.794286     3.0684     2.8486     0.0068  0.2300330 0.0000e+00
        241      1.758    14.1055    14.1032   2.790960   2.794089     3.0708     2.8437     0.0066  0.2305214 0.0000e+00
        242      1.667    14.1037    14.1020   2.790969   2.793940     3.0733     2.8376     0.0066  0.2305214 0.0000e+00
        243      1.758    14.1025    14.1004   2.790700   2.793880     3.0757     2.8327     0.0066  0.2305214 0.0000e+00
        244      1.667    14.1005    14.0985   2.790627   2.793702     3.0781     2.8278     0.0066  0.2305214 0.0000e+00
        245      1.758    14.0980    14.0972   2.790586   2.793511     3.0806     2.8230     0.0066  0.2305214 0.0000e+00
        246      1.667    14.0963    14.0956   2.790525   2.793297     3.0830     2.8181     0.0066  0.2305214 0.0000e+00
        247      1.700    14.0948    14.0939   2.790369   2.793082     3.0867     2.8132     0.0068  0.2305214 0.0000e+00
        248      1.733    14.0934    14.0923   2.790256   2.792906     3.0867     2.8071     0.0066  0.2305214 0.0000e+00
        249      1.758    14.0921    14.0904   2.790074   2.792761     3.0891     2.8022     0.0066  0.2305214 0.0000e+00
        250      1.667    14.0911    14.0882   2.789995   2.792626     3.0916     2.7973     0.0066  0.2305214 0.0000e+00
        251      1.758    14.0909    14.0860   2.789991   2.792523     3.0940     2.7912     0.0066  0.2305214 0.0000e+00
        252      1.667    14.0907    14.0831   2.789872   2.792491     3.0965     2.7863     0.0066  0.2305214 0.0000e+00
        253      1.758    14.0905    14.0804   2.789851   2.792445     3.0977     2.7814     0.0066  0.2305214 0.0000e+00
        254      1.667    14.0905    14.0779   2.789836   2.792341     3.1001     2.7766     0.0064  0.2305214 0.0000e+00
        255      1.700    14.0904    14.0757   2.789714   2.792308     3.1026     2.7705     0.0060  0.2310098 0.0000e+00
        256      1.733    14.0904    14.0740   2.789559   2.792368     3.1050     2.7668     0.0060  0.2314982 0.0000e+00
        257      1.700    14.0902    14.0723   2.789577   2.792321     3.1062     2.7607     0.0060  0.2314982 0.0000e+00
        258      1.733    14.0900    14.0703   2.789481   2.792198     3.1087     2.7558     0.0060  0.2314982 0.0000e+00
        259      1.700    14.0899    14.0680   2.789385   2.792096     3.1111     2.7521     0.0060  0.2314982 0.0000e+00
        260      1.733    14.0895    14.0656   2.789446   2.791955     3.1123     2.7460     0.0060  0.2314982 0.0000e+00
        261      1.700    14.0895    14.0628   2.789426   2.791846     3.1148     2.7411     0.0060  0.2314982 0.0000e+00
        262      1.700    14.0898    14.0600   2.789382   2.791779     3.1172     2.7363     0.0060  0.2314982 0.0000e+00
        263      1.667    14.0897    14.0570   2.789232   2.791740     3.1184     2.7314     0.0060  0.2314982 0.0000e+00
        264      1.700    14.0897    14.0544   2.789343   2.791583     3.1197     2.7265     0.0060  0.2314982 0.0000e+00
        265      1.667    14.0897    14.0519   2.789497   2.791551     3.1209     2.7228     0.0060  0.2314982 0.0000e+00
        266      1.700    14.0898    14.0490   2.789356   2.791394     3.1233     2.7179     0.0060  0.2314982 0.0000e+00
        267      1.733    14.0901    14.0453   2.789165   2.791293     3.1245     2.7131     0.0060  0.2314982 0.0000e+00
        268      1.634    14.0904    14.0424   2.789175   2.791174     3.1270     2.7082     0.0060  0.2314982 0.0000e+00
        269      1.733    14.0902    14.0392   2.789178   2.791113     3.1282     2.7045     0.0060  0.2314982 0.0000e+00
        270      1.700    14.0906    14.0366   2.789161   2.790964     3.1306     2.6996     0.0060  0.2314982 0.0000e+00
        271      1.667    14.0907    14.0342   2.789219   2.790831     3.1319     2.6960     0.0060  0.2314982 0.0000e+00
        272      1.700    14.0907    14.0322   2.789255   2.790705     3.1331     2.6911     0.0060  0.2314982 0.0000e+00
        273      1.667    14.0910    14.0303   2.789169   2.790650     3.1343     2.6874     0.0060  0.2314982 0.0000e+00
        274      1.700    14.0911    14.0293   2.789044   2.790582     3.1368     2.6825     0.0060  0.2314982 0.0000e+00
        275      1.667    14.0912    14.0284   2.789151   2.790504     3.1380     2.6789     0.0060  0.2314982 0.0000e+00
        276      1.699    14.0914    14.0278   2.789086   2.790405     3.1392     2.6752     0.0060  0.2314982 0.0000e+00
        277      1.666    14.0917    14.0264   2.788973   2.790326     3.1404     2.6715     0.0060  0.2314982 0.0000e+00
        278      1.699    14.0923    14.0249   2.788953   2.790245     3.1416     2.6679     0.0060  0.2314982 0.0000e+00
        279      1.666    14.0927    14.0231   2.788975   2.790127     3.1429     2.6642     0.0060  0.2314982 0.0000e+00
        280      1.699    14.0934    14.0214   2.788912   2.790052     3.1441     2.6593     0.0059  0.2275910 0.0000e+00
        281      1.666    14.0939    14.0198   2.788876   2.789961     3.1453     2.6569     0.0057  0.2251490 0.0000e+00
        282      1.699    14.0943    14.0183   2.788926   2.789897     3.1465     2.6532     0.0057  0.2251490 0.0000e+00
        283      1.666    14.0946    14.0173   2.788856   2.789767     3.1477     2.6496     0.0057  0.2251490 0.0000e+00
        284      1.699    14.0951    14.0163   2.788793   2.789710     3.1490     2.6471     0.0057  0.2251490 0.0000e+00
        285      1.609    14.0951    14.0160   2.788803   2.789625     3.1502     2.6435     0.0057  0.2251490 0.0000e+00
        286      1.757    14.0951    14.0153   2.788771   2.789587     3.1514     2.6398     0.0057  0.2251490 0.0000e+00
        287      1.633    14.0953    14.0148   2.788546   2.789469     3.1514     2.6374     0.0057  0.2251490 0.0000e+00
        288      1.732    14.0954    14.0145   2.788503   2.789416     3.1526     2.6337     0.0057  0.2251490 0.0000e+00
        289      1.633    14.0953    14.0141   2.788610   2.789395     3.1526     2.6313     0.0057  0.2251490 0.0000e+00
        290      1.666    14.0953    14.0134   2.788411   2.789388     3.1551     2.6276     0.0057  0.2251490 0.0000e+00
        291      1.699    14.0953    14.0131   2.788455   2.789293     3.1563     2.6251     0.0057  0.2251490 0.0000e+00
        292      1.666    14.0951    14.0125   2.788498   2.789287     3.1563     2.6227     0.0057  0.2251490 0.0000e+00
        293      1.699    14.0951    14.0116   2.788407   2.789158     3.1575     2.6190     0.0057  0.2251490 0.0000e+00
        294      1.666    14.0951    14.0104   2.788202   2.789017     3.1575     2.6166     0.0057  0.2251490 0.0000e+00
        295      1.633    14.0951    14.0089   2.788328   2.788965     3.1587     2.6142     0.0057  0.2251490 0.0000e+00
        296      1.666    14.0953    14.0074   2.788411   2.788883     3.1587     2.6105     0.0057  0.2251490 0.0000e+00
        297      1.699    14.0954    14.0055   2.788223   2.788841     3.1587     2.6081     0.0057  0.2251490 0.0000e+00
        298      1.666    14.0954    14.0042   2.788112   2.788774     3.1587     2.6056     0.0057  0.2251490 0.0000e+00
        299      1.699    14.0953    14.0028   2.788236   2.788697     3.1600     2.6032     0.0057  0.2251490 0.0000e+00
        300      1.666    14.0956    14.0013   2.788120   2.788742     3.1600     2.6007     0.0057  0.2251490 0.0000e+00
        301      1.633    14.0958    13.9997   2.788080   2.788702     3.1600     2.5983     0.0057  0.2251490 0.0000e+00
        302      1.666    14.0958    13.9976   2.788189   2.788660     3.1600     2.5958     0.0057  0.2251490 0.0000e+00
        303      1.699    14.0959    13.9956   2.788304   2.788576     3.1587     2.5934     0.0057  0.2251490 0.0000e+00
        304      1.666    14.0959    13.9936   2.788258   2.788535     3.1587     2.5910     0.0057  0.2251490 0.0000e+00
        305      1.633    14.0960    13.9915   2.788304   2.788429     3.1575     2.5885     0.0059  0.2251490 0.0000e+00
        306      1.666    14.0967    13.9898   2.788384   2.788298     3.1563     2.5861     0.0062  0.2241722 0.0000e+00
        307      1.699    14.0971    13.9878   2.788258   2.788305     3.1538     2.5836     0.0064  0.2241722 0.0000e+00
        308      1.666    14.0973    13.9862   2.788255   2.788265     3.1526     2.5812     0.0064  0.2241722 0.0000e+00
        309      1.633    14.0973    13.9845   2.788193   2.788167     3.1514     2.5800     0.0064  0.2241722 0.0000e+00
        310      1.633    14.0971    13.9825   2.788130   2.788126     3.1490     2.5763     0.0062  0.2241722 0.0000e+00
        311      1.666    14.0971    13.9808   2.788030   2.788060     3.1465     2.5739     0.0064  0.2241722 0.0000e+00
        312      1.699    14.0973    13.9788   2.787872   2.787983     3.1441     2.5726     0.0064  0.2241722 0.0000e+00
        313      1.608    14.0976    13.9774   2.787908   2.787923     3.1404     2.5702     0.0064  0.2241722 0.0000e+00
        314      1.699    14.0978    13.9752   2.787825   2.787856     3.1380     2.5678     0.0064  0.2241722 0.0000e+00
        315      1.666    14.0985    13.9737   2.787857   2.787706     3.1343     2.5653     0.0064  0.2241722 0.0000e+00
        316      1.633    14.0983    13.9723   2.787903   2.787625     3.1306     2.5629     0.0064  0.2241722 0.0000e+00
        317      1.666    14.0985    13.9707   2.787815   2.787534     3.1270     2.5604     0.0064  0.2241722 0.0000e+00
        318      1.699    14.0985    13.9692   2.787754   2.787400     3.1221     2.5592     0.0064  0.2241722 0.0000e+00
        319      1.608    14.0988    13.9676   2.787715   2.787324     3.1172     2.5556     0.0064  0.2241722 0.0000e+00
        320      1.699    14.0988    13.9665   2.787762   2.787155     3.1136     2.5543     0.0064  0.2241722 0.0000e+00
        321      1.666    14.0991    13.9653   2.787837   2.787001     3.1087     2.5519     0.0064  0.2241722 0.0000e+00
        322      1.699    14.0989    13.9644   2.787936   2.786865     3.1050     2.5507     0.0064  0.2241722 0.0000e+00
        323      1.608    14.0988    13.9635   2.787832   2.786718     3.1001     2.5482     0.0064  0.2241722 0.0000e+00
        324      1.699    14.0986    13.9628   2.787867   2.786604     3.0952     2.5458     0.0064  0.2241722 0.0000e+00
        325      1.666    14.0985    13.9621   2.787924   2.786554     3.0904     2.5433     0.0064  0.2241722 0.0000e+00
        326      1.633    14.0986    13.9614   2.787843   2.786386     3.0867     2.5421     0.0064  0.2241722 0.0000e+00
        327      1.666    14.0986    13.9608   2.787933   2.786263     3.0794     2.5397     0.0064  0.2241722 0.0000e+00
        328      1.699    14.0986    13.9604   2.787883   2.786139     3.0745     2.5372     0.0064  0.2241722 0.0000e+00
        329      1.666    14.0989    13.9601   2.787802   2.786065     3.0696     2.5348     0.0064  0.2241722 0.0000e+00
        330      1.633    14.0986    13.9599   2.787832   2.785963     3.0635     2.5336     0.0064  0.2241722 0.0000e+00
        331      1.665    14.0990    13.9595   2.787751   2.785819     3.0586     2.5311     0.0060  0.2314982 0.0000e+00
        332      1.698    14.0996    13.9594   2.787754   2.785692     3.0537     2.5287     0.0057  0.2368706 0.0000e+00
        333      1.665    14.1001    13.9599   2.787658   2.785658     3.0476     2.5275     0.0057  0.2378474 0.0000e+00
        334      1.632    14.1015    13.9610   2.787565   2.785547     3.0427     2.5250     0.0057  0.2373590 0.0000e+00
        335      1.632    14.1023    13.9634   2.787642   2.785558     3.0366     2.5226     0.0057  0.2373590 0.0000e+00
        336      1.665    14.1028    13.9658   2.787541   2.785520     3.0305     2.5201     0.0057  0.2368706 0.0000e+00
        337      1.632    14.1030    13.9687   2.787439   2.785458     3.0256     2.5189     0.0057  0.2373590 0.0000e+00
        338      1.665    14.1028    13.9711   2.787395   2.785325     3.0208     2.5165     0.0057  0.2373590 0.0000e+00
        339      1.698    14.1027    13.9732   2.787335   2.785239     3.0147     2.5140     0.0057  0.2373590 0.0000e+00
        340      1.608    14.1025    13.9744   2.787210   2.785197     3.0085     2.5116     0.0057  0.2373590 0.0000e+00
        341      1.698    14.1028    13.9747   2.787092   2.785184     3.0024     2.5104     0.0057  0.2373590 0.0000e+00
        342      1.665    14.1025    13.9745   2.787117   2.785084     2.9976     2.5079     0.0057  0.2373590 0.0000e+00
        343      1.632    14.1023    13.9737   2.786982   2.785002     2.9915     2.5055     0.0057  0.2373590 0.0000e+00
        344      1.608    14.1025    13.9725   2.786897   2.784893     2.9866     2.5043     0.0057  0.2373590 0.0000e+00
        345      1.698    14.1025    13.9712   2.786859   2.784805     2.9817     2.5018     0.0057  0.2368706 0.0000e+00
        346      1.665    14.1023    13.9700   2.786799   2.784759     2.9756     2.4982     0.0057  0.2373590 0.0000e+00
        347      1.632    14.1023    13.9683   2.786605   2.784707     2.9707     2.4957     0.0057  0.2373590 0.0000e+00
        348      1.607    14.1021    13.9666   2.786637   2.784681     2.9646     2.4957     0.0057  0.2373590 0.0000e+00
        349      1.698    14.1021    13.9656   2.786659   2.784547     2.9597     2.4933     0.0057  0.2373590 0.0000e+00
        350      1.665    14.1018    13.9644   2.786556   2.784449     2.9536     2.4908     0.0057  0.2373590 0.0000e+00
        351      1.632    14.1021    13.9634   2.786385   2.784384     2.9487     2.4884     0.0057  0.2373590 0.0000e+00
        352      1.665    14.1020    13.9628   2.786305   2.784373     2.9438     2.4872     0.0057  0.2373590 0.0000e+00
        353      1.632    14.1020    13.9621   2.786202   2.784341     2.9390     2.4847     0.0057  0.2373590 0.0000e+00
        354      1.665    14.1016    13.9615   2.786111   2.784278     2.9341     2.4823     0.0057  0.2373590 0.0000e+00
        355      1.632    14.1015    13.9611   2.786111   2.784210     2.9304     2.4811     0.0057  0.2368706 0.0000e+00
        356      1.665    14.1015    13.9609   2.786026   2.784185     2.9231     2.4786     0.0057  0.2358938 0.0000e+00
        357      1.632    14.1011    13.9604   2.785993   2.784112     2.9182     2.4762     0.0059  0.2329634 0.0000e+00
        358      1.731    14.1013    13.9605   2.785952   2.784041     2.9133     2.4750     0.0059  0.2310098 0.0000e+00
        359      1.632    14.1010    13.9604   2.785882   2.784033     2.9084     2.4725     0.0059  0.2310098 0.0000e+00
        360      1.698    14.1010    13.9604   2.785808   2.784031     2.9035     2.4701     0.0059  0.2314982 0.0000e+00
        361      1.607    14.1008    13.9608   2.785922   2.784004     2.8987     2.4689     0.0059  0.2314982 0.0000e+00
        362      1.698    14.1010    13.9607   2.785881   2.783959     2.8938     2.4664     0.0059  0.2314982 0.0000e+00
        363      1.665    14.1007    13.9609   2.785870   2.783920     2.8889     2.4640     0.0059  0.2314982 0.0000e+00
        364      1.698    14.1008    13.9604   2.785738   2.783858     2.8840     2.4628     0.0059  0.2310098 0.0000e+00
        365      1.665    14.1008    13.9603   2.785638   2.783872     2.8791     2.4603     0.0059  0.2314982 0.0000e+00
        366      1.698    14.1007    13.9621   2.785698   2.783824     2.8755     2.4579     0.0059  0.2310098 0.0000e+00
        367      1.665    14.1008    13.9671   2.785646   2.783911     2.8706     2.4566     0.0059  0.2314982 0.0000e+00
        368      1.698    14.1005    13.9760   2.785545   2.783964     2.8657     2.4542     0.0059  0.2314982 0.0000e+00
        369      1.665    14.1007    13.9865   2.785526   2.784029     2.8608     2.4518     0.0059  0.2314982 0.0000e+00
        370      1.632    14.1007    13.9966   2.785485   2.784008     2.8571     2.4505     0.0059  0.2314982 0.0000e+00
        371      1.665    14.1003    14.0059   2.785497   2.784053     2.8523     2.4481     0.0059  0.2314982 0.0000e+00
        372      1.698    14.1007    14.0138   2.785408   2.784064     2.8486     2.4457     0.0059  0.2314982 0.0000e+00
        373      1.665    14.1005    14.0209   2.785319   2.784148     2.8437     2.4432     0.0059  0.2314982 0.0000e+00
        374      1.698    14.1010    14.0269   2.785280   2.784148     2.8400     2.4420     0.0059  0.2314982 0.0000e+00
        375      1.665    14.1010    14.0325   2.785196   2.784145     2.8352     2.4396     0.0059  0.2314982 0.0000e+00
        376      1.632    14.1011    14.0374   2.785096   2.784151     2.8315     2.4371     0.0059  0.2314982 0.0000e+00
        377      1.665    14.1011    14.0418   2.785115   2.784171     2.8291     2.4359     0.0059  0.2314982 0.0000e+00
        378      1.697    14.1016    14.0452   2.784969   2.784117     2.8242     2.4335     0.0059  0.2314982 0.0000e+00
        379      1.664    14.1015    14.0482   2.784847   2.784100     2.8193     2.4322     0.0059  0.2314982 0.0000e+00
        380      1.631    14.1020    14.0504   2.784847   2.783993     2.8156     2.4298     0.0059  0.2314982 0.0000e+00
        381      1.664    14.1018    14.0526   2.784655   2.784000     2.8120     2.4273     0.0059  0.2314982 0.0000e+00
        382      1.631    14.1018    14.0541   2.784501   2.783960     2.8071     2.4261     0.0059  0.2280794 0.0000e+00
        383      1.664    14.1018    14.0558   2.784412   2.783901     2.8034     2.4237     0.0060  0.2256374 0.0000e+00
        384      1.697    14.1018    14.0570   2.784194   2.783700     2.8010     2.4212     0.0060  0.2256374 0.0000e+00
        385      1.697    14.1021    14.0579   2.784101   2.783574     2.7961     2.4188     0.0060  0.2256374 0.0000e+00
        386      1.607    14.1018    14.0590   2.783909   2.783511     2.7924     2.4176     0.0060  0.2256374 0.0000e+00
        387      1.697    14.1020    14.0605   2.783736   2.783526     2.7888     2.4151     0.0060  0.2256374 0.0000e+00
        388      1.664    14.1020    14.0620   2.783658   2.783455     2.7851     2.4127     0.0060  0.2256374 0.0000e+00
        389      1.631    14.1018    14.0637   2.783483   2.783262     2.7827     2.4115     0.0060  0.2256374 0.0000e+00
        390      1.730    14.1020    14.0654   2.783288   2.783223     2.7790     2.4090     0.0060  0.2256374 0.0000e+00
        391      1.631    14.1020    14.0671   2.783194   2.783244     2.7753     2.4078     0.0060  0.2256374 0.0000e+00
        392      1.664    14.1016    14.0684   2.782926   2.783129     2.7717     2.4041     0.0060  0.2256374 0.0000e+00
        393      1.631    14.1020    14.0698   2.782824   2.782983     2.7680     2.4029     0.0060  0.2256374 0.0000e+00
        394      1.730    14.1018    14.0710   2.782622   2.782901     2.7656     2.4017     0.0060  0.2256374 0.0000e+00
        395      1.631    14.1018    14.0720   2.782572   2.782897     2.7619     2.3993     0.0060  0.2256374 0.0000e+00
        396      1.664    14.1018    14.0726   2.782484   2.782797     2.7582     2.3980     0.0060  0.2256374 0.0000e+00
        397      1.697    14.1020    14.0733   2.782387   2.782696     2.7546     2.3956     0.0060  0.2251490 0.0000e+00
        398      1.664    14.1016    14.0738   2.782340   2.782606     2.7521     2.3932     0.0060  0.2256374 0.0000e+00
        399      1.697    14.1018    14.0742   2.782221   2.782595     2.7485     2.3919     0.0060  0.2256374 0.0000e+00
        400      1.664    14.1016    14.0747   2.782117   2.782632     2.7460     2.3895     0.0060  0.2256374 0.0000e+00
        401      1.697    14.1016    14.0750   2.782024   2.782557     2.7424     2.3883     0.0060  0.2256374 0.0000e+00
        402      1.730    14.1016    14.0752   2.781974   2.782439     2.7387     2.3858     0.0060  0.2256374 0.0000e+00
        403      1.631    14.1016    14.0755   2.781876   2.782359     2.7363     2.3846     0.0060  0.2256374 0.0000e+00
        404      1.730    14.1015    14.0755   2.781638   2.782395     2.7314     2.3822     0.0060  0.2256374 0.0000e+00
        405      1.631    14.1016    14.0757   2.781702   2.782287     2.7289     2.3809     0.0060  0.2256374 0.0000e+00
        406      1.730    14.1016    14.0759   2.781658   2.782159     2.7265     2.3785     0.0060  0.2256374 0.0000e+00
        407      1.697    14.1015    14.0760   2.781597   2.782153     2.7228     2.3773     0.0059  0.2261258 0.0000e+00
        408      1.664    14.1016    14.0764   2.781543   2.782180     2.7204     2.3748     0.0057  0.2280794 0.0000e+00
        409      1.697    14.1015    14.0764   2.781499   2.782157     2.7167     2.3736     0.0055  0.2285678 0.0000e+00
        410      1.631    14.1015    14.0765   2.781498   2.782098     2.7143     2.3724     0.0053  0.2285678 0.0000e+00
        411      1.730    14.1013    14.0767   2.781298   2.782071     2.7106     2.3700     0.0055  0.2290562 0.0000e+00
        412      1.697    14.1015    14.0771   2.781432   2.782104     2.7082     2.3687     0.0055  0.2290562 0.0000e+00
        413      1.664    14.1016    14.0768   2.781319   2.782027     2.7045     2.3663     0.0055  0.2285678 0.0000e+00
        414      1.697    14.1013    14.0775   2.781388   2.781948     2.7021     2.3651     0.0055  0.2290562 0.0000e+00
        415      1.664    14.1013    14.0779   2.781307   2.782041     2.6984     2.3639     0.0055  0.2290562 0.0000e+00
        416      1.697    14.1011    14.0782   2.781451   2.782056     2.6960     2.3614     0.0055  0.2290562 0.0000e+00
        417      1.664    14.1013    14.0786   2.781366   2.781977     2.6923     2.3602     0.0055  0.2290562 0.0000e+00
        418      1.697    14.1010    14.0789   2.781289   2.781967     2.6899     2.3577     0.0055  0.2285678 0.0000e+00
        419      1.664    14.1007    14.0790   2.781390   2.782041     2.6862     2.3565     0.0055  0.2290562 0.0000e+00
        420      1.696    14.1001    14.0794   2.781160   2.782080     2.6838     2.3553     0.0055  0.2285678 0.0000e+00
        421      1.663    14.0998    14.0799   2.781279   2.782081     2.6801     2.3541     0.0055  0.2285678 0.0000e+00
        422      1.696    14.0995    14.0804   2.781143   2.782008     2.6777     2.3516     0.0055  0.2290562 0.0000e+00
        423      1.663    14.0991    14.0811   2.781179   2.782059     2.6740     2.3516     0.0055  0.2285678 0.0000e+00
        424      1.696    14.0991    14.0818   2.781093   2.782099     2.6715     2.3480     0.0055  0.2290562 0.0000e+00
        425      1.663    14.0993    14.0826   2.781121   2.782080     2.6691     2.3468     0.0055  0.2285678 0.0000e+00
        426      1.696    14.0996    14.0826   2.781004   2.782021     2.6654     2.3455     0.0055  0.2290562 0.0000e+00
        427      1.663    14.1000    14.0828   2.781065   2.782016     2.6630     2.3443     0.0053  0.2290562 0.0000e+00
        428      1.754    14.1007    14.0826   2.780895   2.781930     2.6606     2.3431     0.0055  0.2290562 0.0000e+00
        429      1.663    14.1013    14.0824   2.780866   2.781935     2.6569     2.3407     0.0055  0.2285678 0.0000e+00
        430      1.630    14.1016    14.0823   2.780846   2.781816     2.6545     2.3394     0.0055  0.2290562 0.0000e+00
        431      1.729    14.1018    14.0819   2.780734   2.781841     2.6520     2.3382     0.0055  0.2290562 0.0000e+00
        432      1.696    14.1020    14.0820   2.780714   2.781799     2.6483     2.3370     0.0055  0.2290562 0.0000e+00
        433      1.696    14.1021    14.0816   2.780532   2.781691     2.6459     2.3345     0.0057  0.2310098 0.0000e+00
        434      1.663    14.1020    14.0818   2.780462   2.781660     2.6435     2.3333     0.0059  0.2334518 0.0000e+00
        435      1.696    14.1020    14.0814   2.780452   2.781542     2.6410     2.3321     0.0059  0.2339402 0.0000e+00
        436      1.663    14.1018    14.0814   2.780220   2.781404     2.6374     2.3309     0.0059  0.2339402 0.0000e+00
        437      1.696    14.1018    14.0814   2.780086   2.781324     2.6349     2.3297     0.0059  0.2339402 0.0000e+00
        438      1.729    14.1016    14.0816   2.780011   2.781240     2.6325     2.3284     0.0059  0.2339402 0.0000e+00
        439      1.696    14.1018    14.0818   2.779857   2.781167     2.6300     2.3260     0.0059  0.2339402 0.0000e+00
        440      1.663    14.1016    14.0820   2.779738   2.781088     2.6276     2.3248     0.0059  0.2339402 0.0000e+00
        441      1.696    14.1015    14.0823   2.779690   2.781004     2.6251     2.3236     0.0059  0.2339402 0.0000e+00
        442      1.663    14.1013    14.0826   2.779529   2.780947     2.6227     2.3223     0.0059  0.2339402 0.0000e+00
        443      1.696    14.1011    14.0831   2.779459   2.780859     2.6190     2.3211     0.0059  0.2339402 0.0000e+00
        444      1.663    14.1010    14.0836   2.779460   2.780808     2.6178     2.3187     0.0059  0.2339402 0.0000e+00
        445      1.754    14.1010    14.0843   2.779284   2.780796     2.6142     2.3175     0.0059  0.2334518 0.0000e+00
        446      1.663    14.1007    14.0848   2.779283   2.780783     2.6117     2.3162     0.0059  0.2339402 0.0000e+00
        447      1.696    14.1007    14.0854   2.779172   2.780717     2.6093     2.3150     0.0059  0.2339402 0.0000e+00
        448      1.663    14.1005    14.0860   2.779167   2.780693     2.6068     2.3138     0.0057  0.2339402 0.0000e+00
        449      1.696    14.1003    14.0865   2.779125   2.780659     2.6044     2.3126     0.0059  0.2339402 0.0000e+00
        450      1.663    14.1003    14.0872   2.779131   2.780593     2.6020     2.3113     0.0059  0.2339402 0.0000e+00
        451      1.696    14.1001    14.0874   2.779019   2.780605     2.5995     2.3101     0.0059  0.2339402 0.0000e+00
        452      1.729    14.1000    14.0878   2.779026   2.780592     2.5971     2.3077     0.0059  0.2339402 0.0000e+00
        453      1.630    14.1000    14.0880   2.778942   2.780530     2.5946     2.3065     0.0059  0.2339402 0.0000e+00
        454      1.729    14.1000    14.0885   2.779073   2.780533     2.5922     2.3052     0.0059  0.2339402 0.0000e+00
        455      1.696    14.1000    14.0885   2.778907   2.780534     2.5910     2.3040     0.0059  0.2334518 0.0000e+00
        456      1.663    14.0996    14.0890   2.778880   2.780575     2.5885     2.3028     0.0059  0.2339402 0.0000e+00
        457      1.696    14.0998    14.0891   2.778802   2.780534     2.5861     2.3016     0.0059  0.2339402 0.0000e+00
        458      1.696    14.0998    14.0896   2.778874   2.780430     2.5836     2.3004     0.0059  0.2319866 0.0000e+00
        459      1.663    14.0996    14.0896   2.778730   2.780490     2.5812     2.2991     0.0060  0.2251490 0.0000e+00
        460      1.696    14.0996    14.0899   2.778716   2.780488     2.5788     2.2979     0.0060  0.2222186 0.0000e+00
        461      1.663    14.0998    14.0902   2.778573   2.780442     2.5763     2.2955     0.0060  0.2222186 0.0000e+00
        462      1.695    14.0998    14.0908   2.778629   2.780345     2.5751     2.2943     0.0060  0.2227070 0.0000e+00
        463      1.662    14.0998    14.0905   2.778625   2.780435     2.5726     2.2930     0.0060  0.2227070 0.0000e+00
        464      1.695    14.0998    14.0911   2.778536   2.780380     2.5702     2.2918     0.0060  0.2227070 0.0000e+00
        465      1.662    14.0998    14.0914   2.778436   2.780282     2.5678     2.2906     0.0060  0.2227070 0.0000e+00
        466      1.695    14.1001    14.0914   2.778413   2.780230     2.5653     2.2894     0.0060  0.2227070 0.0000e+00
        467      1.662    14.0998    14.0916   2.778376   2.780217     2.5641     2.2882     0.0060  0.2227070 0.0000e+00
        468      1.695    14.1002    14.0917   2.778332   2.780193     2.5617     2.2869     0.0060  0.2227070 0.0000e+00
        469      1.662    14.1001    14.0919   2.778248   2.780121     2.5604     2.2857     0.0060  0.2227070 0.0000e+00
        470      1.695    14.1001    14.0917   2.778104   2.780127     2.5580     2.2845     0.0060  0.2227070 0.0000e+00
        471      1.662    14.1000    14.0920   2.778128   2.780076     2.5556     2.2833     0.0060  0.2227070 0.0000e+00
        472      1.695    14.1001    14.0921   2.778099   2.779929     2.5531     2.2808     0.0060  0.2227070 0.0000e+00
        473      1.662    14.1003    14.0923   2.778031   2.779953     2.5507     2.2796     0.0060  0.2227070 0.0000e+00
        474      1.695    14.1003    14.0921   2.777905   2.779917     2.5494     2.2784     0.0060  0.2227070 0.0000e+00
        475      1.662    14.1002    14.0923   2.777886   2.779851     2.5470     2.2772     0.0060  0.2227070 0.0000e+00
        476      1.695    14.1000    14.0921   2.777759   2.779799     2.5458     2.2759     0.0060  0.2227070 0.0000e+00
        477      1.662    14.1001    14.0923   2.777680   2.779753     2.5433     2.2747     0.0060  0.2227070 0.0000e+00
        478      1.695    14.1000    14.0923   2.777710   2.779676     2.5409     2.2735     0.0060  0.2227070 0.0000e+00
        479      1.662    14.1000    14.0923   2.777648   2.779651     2.5397     2.2723     0.0060  0.2227070 0.0000e+00
        480      1.629    14.1000    14.0923   2.777570   2.779632     2.5372     2.2711     0.0060  0.2227070 0.0000e+00
        481      1.728    14.1001    14.0921   2.777402   2.779549     2.5348     2.2698     0.0060  0.2227070 0.0000e+00
        482      1.629    14.1000    14.0923   2.777430   2.779477     2.5324     2.2686     0.0060  0.2227070 0.0000e+00
        483      1.695    14.0998    14.0923   2.777341   2.779506     2.5311     2.2674     0.0060  0.2227070 0.0000e+00
        484      1.662    14.0998    14.0921   2.777280   2.779502     2.5299     2.2662     0.0060  0.2231954 0.0000e+00
        485      1.695    14.1000    14.0918   2.777278   2.779414     2.5275     2.2637     0.0060  0.2241722 0.0000e+00
        486      1.662    14.1000    14.0919   2.777244   2.779432     2.5250     2.2625     0.0060  0.2241722 0.0000e+00
        487      1.695    14.1000    14.0917   2.777074   2.779407     2.5238     2.2625     0.0060  0.2241722 0.0000e+00
        488      1.662    14.1000    14.0919   2.777147   2.779310     2.5214     2.2601     0.0060  0.2241722 0.0000e+00
        489      1.695    14.0998    14.0918   2.777037   2.779285     2.5201     2.2601     0.0060  0.2241722 0.0000e+00
        490      1.662    14.1000    14.0917   2.777068   2.779234     2.5177     2.2576     0.0060  0.2241722 0.0000e+00
        491      1.629    14.0998    14.0917   2.777022   2.779167     2.5165     2.2564     0.0060  0.2241722 0.0000e+00
        492      1.728    14.1000    14.0917   2.776918   2.779218     2.5140     2.2552     0.0060  0.2241722 0.0000e+00
        493      1.629    14.0998    14.0917   2.776851   2.779162     2.5128     2.2552     0.0060  0.2241722 0.0000e+00
        494      1.662    14.0998    14.0916   2.776844   2.779170     2.5104     2.2527     0.0059  0.2241722 0.0000e+00
        495      1.695    14.1000    14.0917   2.776788   2.779157     2.5092     2.2515     0.0060  0.2241722 0.0000e+00
        496      1.662    14.1000    14.0917   2.776813   2.779075     2.5067     2.2503     0.0060  0.2241722 0.0000e+00
        497      1.695    14.1000    14.0917   2.776796   2.779094     2.5055     2.2491     0.0060  0.2241722 0.0000e+00
        498      1.662    14.0998    14.0919   2.776691   2.779081     2.5030     2.2479     0.0060  0.2241722 0.0000e+00
        499      1.694    14.1001    14.0921   2.776658   2.779037     2.5018     2.2479     0.0060  0.2241722 0.0000e+00
        500      1.604    14.1000    14.0921   2.776569   2.779009     2.5006     2.2454     0.0060  0.2241722 0.0000e+00
        501      1.694    14.1000    14.0926   2.776697   2.778987     2.4982     2.2442     0.0060  0.2241722 0.0000e+00
        502      1.661    14.1000    14.0927   2.776706   2.779060     2.4957     2.2442     0.0060  0.2241722 0.0000e+00
        503      1.694    14.0998    14.0932   2.776622   2.778974     2.4933     2.2430     0.0060  0.2241722 0.0000e+00
        504      1.661    14.0995    14.0934   2.776657   2.778915     2.4921     2.2418     0.0060  0.2241722 0.0000e+00
        505      1.628    14.0993    14.0938   2.776543   2.778967     2.4908     2.2405     0.0060  0.2241722 0.0000e+00
        506      1.604    14.0986    14.0941   2.776517   2.778940     2.4884     2.2393     0.0060  0.2241722 0.0000e+00
        507      1.694    14.0980    14.0944   2.776394   2.778896     2.4872     2.2381     0.0060  0.2241722 0.0000e+00
        508      1.694    14.0974    14.0947   2.776466   2.778932     2.4847     2.2369     0.0060  0.2241722 0.0000e+00
        509      1.604    14.0969    14.0946   2.776285   2.778812     2.4835     2.2344     0.0060  0.2231954 0.0000e+00
        510      1.694    14.0964    14.0950   2.776254   2.778781     2.4823     2.2344     0.0057  0.2187998 0.0000e+00
        511      1.661    14.0963    14.0950   2.776215   2.778768     2.4798     2.2332     0.0059  0.2168462 0.0000e+00
        512      1.628    14.0959    14.0950   2.776164   2.778691     2.4786     2.2320     0.0059  0.2173346 0.0000e+00
        513      1.661    14.0956    14.0951   2.776151   2.778664     2.4762     2.2308     0.0059  0.2173346 0.0000e+00
        514      1.628    14.0956    14.0950   2.775983   2.778666     2.4762     2.2295     0.0059  0.2168462 0.0000e+00
        515      1.603    14.0954    14.0953   2.776046   2.778613     2.4750     2.2283     0.0059  0.2168462 0.0000e+00
        516      1.694    14.0951    14.0953   2.775898   2.778510     2.4713     2.2271     0.0059  0.2168462 0.0000e+00
        517      1.603    14.0953    14.0953   2.775854   2.778545     2.4701     2.2259     0.0059  0.2168462 0.0000e+00
        518      1.694    14.0951    14.0954   2.775853   2.778555     2.4689     2.2247     0.0059  0.2168462 0.0000e+00
        519      1.661    14.0954    14.0954   2.775610   2.778468     2.4664     2.2234     0.0059  0.2168462 0.0000e+00
        520      1.628    14.0956    14.0956   2.775691   2.778541     2.4652     2.2222     0.0059  0.2168462 0.0000e+00
        521      1.661    14.0959    14.0955   2.775594   2.778540     2.4640     2.2222     0.0059  0.2173346 0.0000e+00
        522      1.628    14.0963    14.0958   2.775585   2.778385     2.4628     2.2198     0.0059  0.2168462 0.0000e+00
        523      1.661    14.0963    14.0958   2.775610   2.778442     2.4615     2.2186     0.0059  0.2168462 0.0000e+00
        524      1.628    14.0967    14.0960   2.775417   2.778426     2.4591     2.2186     0.0059  0.2173346 0.0000e+00
        525      1.661    14.0967    14.0958   2.775427   2.778439     2.4579     2.2173     0.0059  0.2173346 0.0000e+00
        526      1.628    14.0968    14.0960   2.775325   2.778476     2.4554     2.2161     0.0059  0.2173346 0.0000e+00
        527      1.603    14.0973    14.0960   2.775298   2.778411     2.4542     2.2149     0.0059  0.2168462 0.0000e+00
        528      1.694    14.0974    14.0960   2.775363   2.778361     2.4530     2.2137     0.0059  0.2168462 0.0000e+00
        529      1.661    14.0974    14.0962   2.775276   2.778478     2.4518     2.2124     0.0059  0.2173346 0.0000e+00
        530      1.628    14.0978    14.0960   2.775239   2.778423     2.4493     2.2112     0.0059  0.2173346 0.0000e+00
        531      1.603    14.0978    14.0960   2.775195   2.778427     2.4481     2.2100     0.0059  0.2173346 0.0000e+00
        532      1.694    14.0980    14.0954   2.775196   2.778461     2.4469     2.2088     0.0059  0.2173346 0.0000e+00
        533      1.628    14.0980    14.0958   2.775276   2.778419     2.4444     2.2088     0.0059  0.2168462 0.0000e+00
        534      1.660    14.0980    14.0953   2.775038   2.778373     2.4432     2.2076     0.0059  0.2168462 0.0000e+00
        535      1.627    14.0983    14.0953   2.775184   2.778409     2.4420     2.2063     0.0057  0.2217302 0.0000e+00
        536      1.660    14.0980    14.0946   2.775177   2.778267     2.4396     2.2051     0.0057  0.2261258 0.0000e+00
        537      1.693    14.0983    14.0943   2.775168   2.778153     2.4383     2.2039     0.0057  0.2271026 0.0000e+00
        538      1.660    14.0985    14.0938   2.775539   2.778272     2.4371     2.2039     0.0057  0.2266142 0.0000e+00
        539      1.693    14.0983    14.0936   2.775797   2.778537     2.4359     2.2027     0.0057  0.2266142 0.0000e+00
        540      1.726    14.0981    14.0938   2.776431   2.779044     2.4347     2.2015     0.0057  0.2266142 0.0000e+00
        541      1.693    14.0973    14.0951   2.776892   2.779629     2.4335     2.2002     0.0057  0.2266142 0.0000e+00
        542      1.726    14.0966    14.0965   2.777233   2.780000     2.4310     2.1990     0.0057  0.2266142 0.0000e+00
        543      1.751    14.0956    14.0978   2.777628   2.780090     2.4286     2.1978     0.0057  0.2266142 0.0000e+00
        544      1.726    14.0954    14.0987   2.777934   2.780092     2.4286     2.1978     0.0057  0.2261258 0.0000e+00
        545      1.817    14.0949    14.0993   2.778142   2.780051     2.4261     2.1966     0.0057  0.2266142 0.0000e+00
        546      1.784    14.0951    14.0999   2.778143   2.780196     2.4249     2.1954     0.0057  0.2266142 0.0000e+00
        547      1.817    14.0951    14.1000   2.778364   2.780575     2.4237     2.1941     0.0057  0.2266142 0.0000e+00
        548      1.784    14.0946    14.1000   2.778367   2.781171     2.4225     2.1941     0.0057  0.2266142 0.0000e+00
        549      1.874    14.0939    14.0999   2.778450   2.781622     2.4212     2.1917     0.0057  0.2261258 0.0000e+00
        550      1.850    14.0922    14.1000   2.778341   2.781910     2.4188     2.1917     0.0057  0.2266142 0.0000e+00
        551      1.874    14.0899    14.1000   2.778295   2.782070     2.4176     2.1905     0.0057  0.2266142 0.0000e+00
        552      1.907    14.0879    14.0997   2.778174   2.782255     2.4164     2.1892     0.0057  0.2266142 0.0000e+00
        553      1.932    14.0863    14.0995   2.778217   2.782519     2.4151     2.1880     0.0057  0.2266142 0.0000e+00
        554      1.932    14.0850    14.0992   2.778072   2.782758     2.4139     2.1868     0.0057  0.2266142 0.0000e+00
        555      1.965    14.0840    14.0992   2.778171   2.783007     2.4127     2.1856     0.0057  0.2266142 0.0000e+00
        556      1.998    14.0821    14.0988   2.778007   2.783224     2.4115     2.1844     0.0057  0.2266142 0.0000e+00
        557      1.965    14.0812    14.0990   2.778021   2.783464     2.4090     2.1844     0.0057  0.2266142 0.0000e+00
        558      2.055    14.0804    14.0985   2.777857   2.783808     2.4078     2.1831     0.0057  0.2266142 0.0000e+00
        559      2.088    14.0799    14.0977   2.777855   2.784082     2.4066     2.1819     0.0057  0.2266142 0.0000e+00
        560      2.055    14.0795    14.0966   2.777547   2.784137     2.4054     2.1807     0.0057  0.2266142 0.0000e+00
        561      2.088    14.0796    14.0958   2.777499   2.784245     2.4041     2.1795     0.0060  0.2275910 0.0000e+00
        562      2.121    14.0798    14.0944   2.777193   2.784314     2.4017     2.1795     0.0064  0.2280794 0.0000e+00
        563      2.154    14.0796    14.0935   2.777210   2.784417     2.4005     2.1783     0.0064  0.2280794 0.0000e+00
        564      2.121    14.0796    14.0931   2.776984   2.784501     2.3993     2.1783     0.0062  0.2280794 0.0000e+00
        565      2.212    14.0795    14.0929   2.776920   2.784601     2.3980     2.1770     0.0064  0.2280794 0.0000e+00
        566      2.245    14.0792    14.0929   2.776677   2.784617     2.3968     2.1770     0.0064  0.2280794 0.0000e+00
        567      2.212    14.0795    14.0932   2.776544   2.784629     2.3956     2.1758     0.0064  0.2280794 0.0000e+00
        568      2.245    14.0801    14.0936   2.776461   2.784555     2.3944     2.1758     0.0064  0.2280794 0.0000e+00
        569      2.278    14.0813    14.0938   2.776315   2.784445     2.3944     2.1746     0.0064  0.2280794 0.0000e+00
        570      2.302    14.0830    14.0939   2.776285   2.784472     2.3932     2.1746     0.0064  0.2280794 0.0000e+00
        571      2.302    14.0841    14.0943   2.776064   2.784425     2.3919     2.1746     0.0064  0.2280794 0.0000e+00
        572      2.335    14.0852    14.0952   2.776074   2.784472     2.3907     2.1746     0.0064  0.2280794 0.0000e+00
        573      2.426    14.0863    14.0961   2.775901   2.784449     2.3895     2.1734     0.0064  0.2280794 0.0000e+00
        574      2.393    14.0889    14.0972   2.775922   2.784389     2.3895     2.1746     0.0064  0.2280794 0.0000e+00
        575      2.360    14.0905    14.0980   2.775768   2.784312     2.3883     2.1734     0.0064  0.2280794 0.0000e+00
        576      2.459    14.0922    14.0989   2.775749   2.784199     2.3871     2.1734     0.0064  0.2280794 0.0000e+00
        577      2.426    14.0936    14.0995   2.775669   2.784084     2.3858     2.1734     0.0064  0.2280794 0.0000e+00
        578      2.516    14.0949    14.0999   2.775577   2.784000     2.3858     2.1746     0.0064  0.2280794 0.0000e+00
        579      2.483    14.0963    14.1005   2.775519   2.783875     2.3846     2.1746     0.0064  0.2280794 0.0000e+00
        580      2.516    14.0974    14.1014   2.775405   2.783622     2.3846     2.1746     0.0064  0.2280794 0.0000e+00
        581      2.549    14.0980    14.1020   2.775451   2.783385     2.3834     2.1746     0.0064  0.2280794 0.0000e+00
        582      2.582    14.0981    14.1027   2.775356   2.783116     2.3834     2.1746     0.0064  0.2280794 0.0000e+00
        583      2.549    14.0985    14.1037   2.775368   2.782864     2.3834     2.1746     0.0064  0.2280794 0.0000e+00
        584      2.640    14.0989    14.1039   2.775467   2.782625     2.3834     2.1758     0.0064  0.2280794 0.0000e+00
        585      2.607    14.1000    14.1044   2.775311   2.782350     2.3797     2.1758     0.0064  0.2280794 0.0000e+00
        586      2.665    14.0998    14.1049   2.775311   2.782113     2.3797     2.1770     0.0064  0.2271026 0.0000e+00
        587      2.697    14.1000    14.1051   2.775367   2.781842     2.3797     2.1770     0.0066  0.2261258 0.0000e+00
        588      2.664    14.1000    14.1052   2.775173   2.781587     2.3797     2.1783     0.0066  0.2261258 0.0000e+00
        589      2.697    14.1000    14.1051   2.775304   2.781427     2.3797     2.1783     0.0066  0.2261258 0.0000e+00
        590      2.730    14.1000    14.1051   2.775148   2.781272     2.3797     2.1783     0.0066  0.2261258 0.0000e+00
        591      2.763    14.1007    14.1057   2.775313   2.781089     2.3785     2.1807     0.0066  0.2261258 0.0000e+00
        592      2.854    14.1015    14.1061   2.775269   2.781043     2.3785     2.1807     0.0066  0.2261258 0.0000e+00
        593      2.763    14.1032    14.1066   2.775212   2.780976     2.3773     2.1819     0.0064  0.2261258 0.0000e+00
        594      2.854    14.1048    14.1068   2.775364   2.780940     2.3773     2.1831     0.0066  0.2261258 0.0000e+00
        595      2.821    14.1065    14.1066   2.775221   2.780807     2.3773     2.1831     0.0066  0.2261258 0.0000e+00
        596      2.912    14.1075    14.1078   2.775333   2.780886     2.3773     2.1844     0.0066  0.2261258 0.0000e+00
        597      2.911    14.1110    14.1117   2.775380   2.780955     2.3773     2.1856     0.0066  0.2261258 0.0000e+00
        598      2.887    14.1154    14.1163   2.775386   2.780914     2.3773     2.1868     0.0066  0.2261258 0.0000e+00
        599      2.969    14.1208    14.1205   2.775409   2.780926     2.3761     2.1880     0.0064  0.2261258 0.0000e+00
        600      2.944    14.1242    14.1247   2.775234   2.780905     2.3761     2.1892     0.0066  0.2261258 0.0000e+00
        601      2.969    14.1255    14.1271   2.775411   2.780973     2.3761     2.1905     0.0066  0.2261258 0.0000e+00
        602      3.068    14.1266    14.1279   2.775293   2.780918     2.3773     2.1917     0.0066  0.2261258 0.0000e+00
        603      2.969    14.1294    14.1291   2.775353   2.780794     2.3761     2.1917     0.0064  0.2261258 0.0000e+00
        604      3.068    14.1340    14.1333   2.775425   2.780730     2.3761     2.1929     0.0066  0.2261258 0.0000e+00
        605      3.093    14.1389    14.1421   2.775347   2.780786     2.3748     2.1941     0.0066  0.2261258 0.0000e+00
        606      3.068    14.1422    14.1502   2.775420   2.780689     2.3761     2.1954     0.0066  0.2261258 0.0000e+00
        607      3.158    14.1475    14.1553   2.775327   2.780581     2.3748     2.1966     0.0066  0.2261258 0.0000e+00
        608      3.158    14.1564    14.1573   2.775275   2.780588     2.3761     2.1978     0.0066  0.2261258 0.0000e+00
        609      3.125    14.1639    14.1602   2.775482   2.780573     2.3748     2.1990     0.0066  0.2261258 0.0000e+00
        610      3.216    14.1692    14.1607   2.775266   2.780478     2.3748     2.1990     0.0066  0.2261258 0.0000e+00
        611      3.191    14.1725    14.1580   2.775391   2.780340     2.3748     2.2002     0.0066  0.2256374 0.0000e+00
        612      3.216    14.1744    14.1572   2.775404   2.780427     2.3748     2.2015     0.0064  0.2217302 0.0000e+00
        613      3.249    14.1797    14.1644   2.775343   2.780465     2.3736     2.2027     0.0062  0.2197766 0.0000e+00
        614      3.282    14.1874    14.1849   2.775367   2.780449     2.3736     2.2039     0.0064  0.2197766 0.0000e+00
        615      3.315    14.1899    14.1986   2.775355   2.780448     2.3736     2.2051     0.0064  0.2197766 0.0000e+00
        616      3.340    14.1869    14.2077   2.775473   2.780523     2.3724     2.2051     0.0062  0.2197766 0.0000e+00
        617      3.340    14.1833    14.2181   2.775319   2.780600     2.3724     2.2063     0.0064  0.2197766 0.0000e+00
        618      3.372    14.1840    14.2227   2.775322   2.780478     2.3724     2.2076     0.0064  0.2197766 0.0000e+00
        619      3.339    14.1874    14.2225   2.775351   2.780508     2.3724     2.2088     0.0064  0.2197766 0.0000e+00
        620      3.430    14.1869    14.2213   2.775359   2.780598     2.3712     2.2100     0.0064  0.2197766 0.0000e+00
        621      3.397    14.1845    14.2224   2.775448   2.780623     2.3712     2.2100     0.0064  0.2197766 0.0000e+00
        622      3.496    14.1858    14.2258   2.775360   2.780555     2.3712     2.2112     0.0064  0.2197766 0.0000e+00
        623      3.463    14.1891    14.2286   2.775368   2.780607     2.3712     2.2124     0.0064  0.2197766 0.0000e+00
        624      3.496    14.1926    14.2329   2.775409   2.780702     2.3700     2.2124     0.0064  0.2197766 0.0000e+00
        625      3.521    14.1969    14.2467   2.775366   2.780771     2.3700     2.2137     0.0064  0.2197766 0.0000e+00
        626      3.521    14.2033    14.2578   2.775546   2.780785     2.3687     2.2149     0.0064  0.2197766 0.0000e+00
        627      3.554    14.2122    14.2650   2.775574   2.780832     2.3687     2.2149     0.0064  0.2197766 0.0000e+00
        628      3.586    14.2243    14.2682   2.775615   2.780955     2.3687     2.2161     0.0064  0.2202650 0.0000e+00
        629      3.619    14.2380    14.2720   2.775727   2.780957     2.3675     2.2161     0.0064  0.2197766 0.0000e+00
        630      3.644    14.2466    14.2727   2.775738   2.780942     2.3675     2.2173     0.0064  0.2197766 0.0000e+00
        631      3.619    14.2547    14.2700   2.775784   2.780999     2.3675     2.2186     0.0064  0.2197766 0.0000e+00
        632      3.702    14.2676    14.2678   2.775843   2.781069     2.3663     2.2198     0.0064  0.2197766 0.0000e+00
        633      3.677    14.2817    14.2667   2.776047   2.781021     2.3651     2.2186     0.0064  0.2197766 0.0000e+00
        634      3.702    14.2978    14.2700   2.775957   2.781122     2.3651     2.2198     0.0064  0.2197766 0.0000e+00
        635      3.768    14.3066    14.2708   2.776015   2.781193     2.3651     2.2210     0.0064  0.2197766 0.0000e+00
        636      3.743    14.3073    14.2644   2.776108   2.781198     2.3639     2.2222     0.0064  0.2197766 0.0000e+00
        637      3.825    14.3083    14.2514   2.776077   2.781131     2.3639     2.2222     0.0062  0.2134274 0.0000e+00
        638      3.800    14.3115    14.2369   2.776270   2.781122     2.3626     2.2234     0.0062  0.2061013 0.0000e+00
        639      3.825    14.3201    14.2222   2.776199   2.781134     2.3626     2.2234     0.0062  0.2046361 0.0000e+00
        640      3.858    14.3298    14.2182   2.776262   2.781150     2.3614     2.2247     0.0062  0.2046361 0.0000e+00
        641      3.891    14.3379    14.2207   2.776426   2.781181     2.3602     2.2247     0.0062  0.2056129 0.0000e+00
        642      3.858    14.3428    14.2293   2.776463   2.781256     2.3602     2.2259     0.0062  0.2051245 0.0000e+00
        643      3.949    14.3468    14.2377   2.776444   2.781336     2.3590     2.2271     0.0062  0.2056129 0.0000e+00
        644      3.949    14.3519    14.2468   2.776445   2.781381     2.3577     2.2271     0.0062  0.2056129 0.0000e+00
        645      3.924    14.3567    14.2519   2.776536   2.781410     2.3577     2.2283     0.0062  0.2051245 0.0000e+00
        646      4.014    14.3616    14.2515   2.776530   2.781414     2.3565     2.2283     0.0060  0.2051245 0.0000e+00
        647      3.981    14.3751    14.2422   2.776601   2.781484     2.3565     2.2295     0.0060  0.2051245 0.0000e+00
        648      4.014    14.3854    14.2360   2.776725   2.781459     2.3553     2.2295     0.0060  0.2051245 0.0000e+00
        649      4.105    14.3920    14.2348   2.776849   2.781454     2.3553     2.2308     0.0062  0.2056129 0.0000e+00
        650      4.072    14.3957    14.2340   2.776699   2.781451     2.3541     2.2308     0.0062  0.2051245 0.0000e+00
        651      4.072    14.3941    14.2306   2.776781   2.781469     2.3529     2.2308     0.0062  0.2051245 0.0000e+00
        652      4.105    14.3936    14.2298   2.776771   2.781556     2.3516     2.2320     0.0062  0.2056129 0.0000e+00
        653      4.196    14.3947    14.2269   2.776841   2.781524     2.3516     2.2332     0.0060  0.2056129 0.0000e+00
        654      4.105    14.4046    14.2205   2.776769   2.781498     2.3504     2.2332     0.0060  0.2051245 0.0000e+00
        655      4.196    14.4183    14.2152   2.776840   2.781522     2.3504     2.2332     0.0062  0.2056129 0.0000e+00
        656      4.228    14.4326    14.2075   2.776978   2.781503     2.3492     2.2332     0.0062  0.2051245 0.0000e+00
        657      4.253    14.4468    14.2016   2.777002   2.781533     2.3480     2.2344     0.0062  0.2056129 0.0000e+00
        658      4.195    14.4571    14.2000   2.777076   2.781501     2.3468     2.2344     0.0062  0.2051245 0.0000e+00
        659      4.286    14.4645    14.1954   2.777057   2.781484     2.3468     2.2344     0.0060  0.2051245 0.0000e+00
        660      4.319    14.4747    14.1937   2.777184   2.781500     2.3455     2.2344     0.0062  0.2056129 0.0000e+00
        661      4.286    14.4845    14.1952   2.777174   2.781490     2.3443     2.2356     0.0060  0.2056129 0.0000e+00
        662      4.319    14.4861    14.2043   2.777165   2.781531     2.3431     2.2356     0.0060  0.2046361 0.0000e+00
        663      4.410    14.4895    14.2066   2.777174   2.781546     2.3419     2.2356     0.0059  0.2026825 0.0000e+00
        664      4.377    14.4974    14.2035   2.777259   2.781450     2.3419     2.2356     0.0059  0.2017057 0.0000e+00
        665      4.377    14.4970    14.1998   2.777204   2.781463     2.3407     2.2356     0.0059  0.2012173 0.0000e+00
        666      4.475    14.4907    14.1940   2.777171   2.781494     2.3407     2.2356     0.0059  0.2017057 0.0000e+00
        667      4.434    14.4890    14.1937   2.777234   2.781462     2.3394     2.2356     0.0059  0.2017057 0.0000e+00
        668      4.475    14.4882    14.1900   2.777271   2.781432     2.3382     2.2356     0.0059  0.2017057 0.0000e+00
        669      4.434    14.4856    14.1823   2.777235   2.781398     2.3370     2.2356     0.0059  0.2012173 0.0000e+00
        670      4.533    14.4787    14.1778   2.777215   2.781431     2.3358     2.2356     0.0059  0.2017057 0.0000e+00
        671      4.558    14.4701    14.1720   2.777135   2.781425     2.3358     2.2356     0.0059  0.2017057 0.0000e+00
        672      4.558    14.4655    14.1629   2.777162   2.781403     2.3345     2.2356     0.0059  0.2017057 0.0000e+00
        673      4.591    14.4633    14.1537   2.777145   2.781390     2.3333     2.2356     0.0059  0.2012173 0.0000e+00
        674      4.624    14.4636    14.1448   2.777186   2.781422     2.3321     2.2356     0.0059  0.2017057 0.0000e+00
        675      4.591    14.4628    14.1402   2.777217   2.781502     2.3321     2.2356     0.0059  0.2017057 0.0000e+00
        676      4.623    14.4630    14.1389   2.777193   2.781419     2.3309     2.2356     0.0059  0.2017057 0.0000e+00
        677      4.681    14.4631    14.1383   2.777179   2.781361     2.3297     2.2344     0.0059  0.2017057 0.0000e+00
        678      4.714    14.4658    14.1402   2.777203   2.781396     2.3284     2.2344     0.0059  0.2017057 0.0000e+00
        679      4.681    14.4679    14.1416   2.777207   2.781430     2.3284     2.2344     0.0059  0.2017057 0.0000e+00
        680      4.780    14.4695    14.1447   2.777146   2.781450     2.3272     2.2344     0.0059  0.2017057 0.0000e+00
        681      4.739    14.4711    14.1472   2.777218   2.781436     2.3260     2.2344     0.0059  0.2012173 0.0000e+00
        682      4.780    14.4720    14.1471   2.777289   2.781384     2.3260     2.2344     0.0059  0.2017057 0.0000e+00
        683      4.805    14.4734    14.1447   2.777318   2.781397     2.3248     2.2344     0.0059  0.2017057 0.0000e+00
        684      4.805    14.4729    14.1445   2.777377   2.781426     2.3236     2.2332     0.0059  0.2017057 0.0000e+00
        685      4.838    14.4690    14.1444   2.777327   2.781412     2.3223     2.2332     0.0059  0.2012173 0.0000e+00
        686      4.862    14.4631    14.1438   2.777307   2.781460     2.3223     2.2332     0.0059  0.2012173 0.0000e+00
        687      4.903    14.4657    14.1537   2.777433   2.781554     2.3211     2.2332     0.0059  0.2012173 0.0000e+00
        688      4.928    14.4677    14.1604   2.777357   2.781666     2.3211     2.2332     0.0057  0.1997521 0.0000e+00
        689      4.928    14.4659    14.1644   2.777433   2.781705     2.3199     2.2332     0.0055  0.1982869 0.0000e+00
        690      4.961    14.4656    14.1703   2.777516   2.781782     2.3187     2.2332     0.0055  0.1977985 0.0000e+00
        691      4.986    14.4661    14.1784   2.777460   2.781794     2.3175     2.2332     0.0055  0.1973101 0.0000e+00
        692      5.019    14.4696    14.1788   2.777579   2.781835     2.3175     2.2344     0.0055  0.1977985 0.0000e+00
        693      4.986    14.4714    14.1782   2.777708   2.781909     2.3162     2.2344     0.0055  0.1977985 0.0000e+00
        694      5.085    14.4721    14.1976   2.777783   2.782017     2.3150     2.2344     0.0055  0.1977985 0.0000e+00
        695      5.051    14.4739    14.2114   2.777830   2.782093     2.3150     2.2344     0.0055  0.1977985 0.0000e+00
        696      5.051    14.4798    14.2236   2.777883   2.782146     2.3150     2.2356     0.0055  0.1977985 0.0000e+00
        697      5.142    14.4824    14.2317   2.778063   2.782204     2.3138     2.2356     0.0055  0.1977985 0.0000e+00
        698      5.109    14.4848    14.2312   2.777972   2.782251     2.3126     2.2356     0.0055  0.1977985 0.0000e+00
        699      5.208    14.4845    14.2290   2.778022   2.782212     2.3113     2.2369     0.0055  0.1977985 0.0000e+00
        700      5.109    14.4865    14.2190   2.778107   2.782179     2.3113     2.2369     0.0055  0.1977985 0.0000e+00
        701      5.233    14.4877    14.2157   2.778169   2.782189     2.3101     2.2369     0.0055  0.1977985 0.0000e+00
        702      5.208    14.4860    14.2244   2.778203   2.782261     2.3101     2.2381     0.0055  0.1977985 0.0000e+00
        703      5.290    14.4866    14.2305   2.778288   2.782376     2.3089     2.2381     0.0055  0.1977985 0.0000e+00
        704      5.266    14.4963    14.2325   2.778243   2.782384     2.3077     2.2393     0.0055  0.1977985 0.0000e+00
        705      5.233    14.5034    14.2415   2.778375   2.782371     2.3077     2.2393     0.0055  0.1977985 0.0000e+00
        706      5.356    14.5026    14.2647   2.778412   2.782520     2.3065     2.2405     0.0055  0.1977985 0.0000e+00
        707      5.323    14.5018    14.2858   2.778488   2.782558     2.3065     2.2418     0.0053  0.1977985 0.0000e+00
        708      5.356    14.5035    14.2958   2.778448   2.782634     2.3052     2.2430     0.0055  0.1977985 0.0000e+00
        709      5.389    14.5128    14.2939   2.778584   2.782696     2.3052     2.2430     0.0055  0.1977985 0.0000e+00
        710      5.356    14.5245    14.2920   2.778690   2.782630     2.3040     2.2442     0.0055  0.1977985 0.0000e+00
        711      5.447    14.5379    14.2919   2.778750   2.782715     2.3052     2.2442     0.0055  0.1973101 0.0000e+00
        712      5.414    14.5554    14.2973   2.778905   2.782767     2.3028     2.2454     0.0055  0.1977985 0.0000e+00
        713      5.471    14.5660    14.3052   2.778856   2.782750     2.3016     2.2466     0.0055  0.1958449 0.0000e+00
        714      5.513    14.5654    14.3128   2.778920   2.782778     2.3016     2.2479     0.0053  0.1841233 0.0000e+00
        715      5.471    14.5689    14.3206   2.778930   2.782797     2.3004     2.2491     0.0051  0.1777741 0.0000e+00
        716      5.512    14.5788    14.3292   2.779078   2.782851     2.3004     2.2491     0.0051  0.1777741 0.0000e+00
        717      5.595    14.5852    14.3415   2.779044   2.782865     2.3004     2.2503     0.0051  0.1777741 0.0000e+00
        718      5.537    14.6043    14.3544   2.779131   2.782883     2.2991     2.2515     0.0051  0.1782625 0.0000e+00
        719      5.636    14.6248    14.3851   2.779183   2.783041     2.2979     2.2527     0.0051  0.1782625 0.0000e+00
        720      5.595    14.6451    14.4116   2.779295   2.783179     2.2979     2.2527     0.0051  0.1782625 0.0000e+00
        721      5.694    14.6593    14.4278   2.779361   2.783276     2.2967     2.2540     0.0051  0.1782625 0.0000e+00
        722      5.595    14.6721    14.4499   2.779534   2.783370     2.2967     2.2552     0.0051  0.1782625 0.0000e+00
        723      5.718    14.6880    14.4632   2.779537   2.783392     2.2967     2.2564     0.0051  0.1782625 0.0000e+00
        724      5.693    14.7147    14.4717   2.779634   2.783367     2.2955     2.2576     0.0051  0.1782625 0.0000e+00
        725      5.718    14.7333    14.4820   2.779807   2.783468     2.2955     2.2576     0.0051  0.1782625 0.0000e+00
        726      5.751    14.7295    14.4924   2.779828   2.783547     2.2943     2.2588     0.0051  0.1782625 0.0000e+00
        727      5.784    14.7092    14.5019   2.779771   2.783558     2.2930     2.2601     0.0051  0.1782625 0.0000e+00
        728      5.784    14.6935    14.5129   2.779742   2.783565     2.2930     2.2613     0.0051  0.1782625 0.0000e+00
        729      5.817    14.6878    14.5159   2.779688   2.783600     2.2930     2.2625     0.0051  0.1782625 0.0000e+00
        730      5.842    14.6890    14.5241   2.779757   2.783574     2.2918     2.2637     0.0051  0.1782625 0.0000e+00
        731      5.817    14.6951    14.5334   2.779770   2.783568     2.2918     2.2637     0.0051  0.1782625 0.0000e+00
        732      5.899    14.7109    14.5442   2.779880   2.783670     2.2918     2.2650     0.0051  0.1782625 0.0000e+00
        733      5.899    14.7270    14.5545   2.779829   2.783662     2.2918     2.2662     0.0051  0.1782625 0.0000e+00
        734      5.940    14.7307    14.5645   2.779999   2.783690     2.2894     2.2674     0.0051  0.1782625 0.0000e+00
        735      5.899    14.7372    14.5707   2.779889   2.783694     2.2894     2.2686     0.0051  0.1782625 0.0000e+00
        736      5.940    14.7445    14.5753   2.780012   2.783696     2.2894     2.2686     0.0051  0.1782625 0.0000e+00
        737      6.023    14.7489    14.5797   2.780061   2.783703     2.2881     2.2698     0.0053  0.1782625 0.0000e+00
        738      6.023    14.7431    14.5866   2.780076   2.783735     2.2881     2.2711     0.0051  0.1782625 0.0000e+00
        739      5.998    14.7386    14.5976   2.780009   2.783756     2.2881     2.2711     0.0051  0.1792393 0.0000e+00
        740      6.088    14.7376    14.6091   2.780108   2.783764     2.2869     2.2723     0.0049  0.1807045 0.0000e+00
        741      6.088    14.7356    14.6103   2.780084   2.783736     2.2869     2.2735     0.0049  0.1821697 0.0000e+00
        742      6.064    14.7303    14.6063   2.780095   2.783780     2.2857     2.2735     0.0049  0.1811929 0.0000e+00
        743      6.088    14.7226    14.6029   2.780125   2.783799     2.2857     2.2735     0.0049  0.1811929 0.0000e+00
        744      6.179    14.7147    14.6088   2.780105   2.783779     2.2857     2.2759     0.0049  0.1811929 0.0000e+00
        745      6.146    14.7015    14.6071   2.780120   2.783810     2.2845     2.2759     0.0049  0.1811929 0.0000e+00
        746      6.146    14.6825    14.6009   2.780069   2.783798     2.2845     2.2759     0.0049  0.1811929 0.0000e+00
        747      6.245    14.6741    14.5787   2.780064   2.783681     2.2833     2.2759     0.0049  0.1811929 0.0000e+00
        748      6.203    14.6687    14.5592   2.780066   2.783628     2.2833     2.2772     0.0049  0.1811929 0.0000e+00
        749      6.245    14.6702    14.5626   2.780128   2.783584     2.2833     2.2784     0.0049  0.1811929 0.0000e+00
        750      6.269    14.6886    14.5772   2.780271   2.783696     2.2820     2.2796     0.0049  0.1811929 0.0000e+00
        751      6.269    14.7097    14.5895   2.780417   2.783680     2.2820     2.2796     0.0049  0.1811929 0.0000e+00
        752      6.302    14.7238    14.5979   2.780548   2.783654     2.2820     2.2796     0.0049  0.1811929 0.0000e+00
        753      6.393    14.7295    14.6083   2.780592   2.783717     2.2820     2.2808     0.0049  0.1811929 0.0000e+00
        754      6.302    14.7314    14.6169   2.780579   2.783756     2.2808     2.2796     0.0049  0.1811929 0.0000e+00
        755      6.393    14.7329    14.6078   2.780704   2.783770     2.2796     2.2808     0.0049  0.1811929 0.0000e+00
        756      6.393    14.7348    14.5950   2.780669   2.783716     2.2796     2.2808     0.0049  0.1811929 0.0000e+00
        757      6.426    14.7267    14.5767   2.780815   2.783626     2.2796     2.2820     0.0049  0.1811929 0.0000e+00
        758      6.393    14.7233    14.5660   2.780787   2.783612     2.2796     2.2833     0.0049  0.1811929 0.0000e+00
        759      6.450    14.7270    14.5641   2.780808   2.783569     2.2784     2.2833     0.0049  0.1811929 0.0000e+00
        760      6.549    14.7300    14.5614   2.780922   2.783518     2.2784     2.2833     0.0049  0.1811929 0.0000e+00
        761      6.450    14.7399    14.5557   2.781021   2.783541     2.2784     2.2833     0.0049  0.1811929 0.0000e+00
        762      6.549    14.7393    14.5525   2.780960   2.783526     2.2772     2.2833     0.0049  0.1811929 0.0000e+00
        763      6.574    14.7257    14.5415   2.780963   2.783443     2.2772     2.2845     0.0049  0.1811929 0.0000e+00
        764      6.516    14.7184    14.5269   2.781027   2.783410     2.2759     2.2845     0.0049  0.1811929 0.0000e+00
        765      6.607    14.7242    14.5241   2.781067   2.783408     2.2759     2.2845     0.0048  0.1792393 0.0000e+00
        766      6.631    14.7367    14.5251   2.781219   2.783420     2.2759     2.2857     0.0048  0.1782625 0.0000e+00
        767      6.607    14.7497    14.5126   2.781302   2.783375     2.2759     2.2857     0.0048  0.1782625 0.0000e+00
        768      6.631    14.7664    14.4987   2.781379   2.783314     2.2747     2.2857     0.0046  0.1782625 0.0000e+00
        769      6.697    14.7811    14.4989   2.781512   2.783308     2.2747     2.2857     0.0048  0.1782625 0.0000e+00
        770      6.672    14.7898    14.5126   2.781562   2.783386     2.2735     2.2857     0.0048  0.1782625 0.0000e+00
        771      6.755    14.7857    14.5249   2.781648   2.783479     2.2735     2.2857     0.0048  0.1782625 0.0000e+00
        772      6.755    14.7795    14.5318   2.781635   2.783536     2.2723     2.2857     0.0048  0.1782625 0.0000e+00
        773      6.730    14.7773    14.5377   2.781724   2.783535     2.2735     2.2869     0.0048  0.1782625 0.0000e+00
        774      6.821    14.7750    14.5454   2.781748   2.783530     2.2723     2.2857     0.0048  0.1782625 0.0000e+00
        775      6.796    14.7724    14.5518   2.781766   2.783600     2.2723     2.2857     0.0048  0.1782625 0.0000e+00
        776      6.820    14.7750    14.5560   2.781820   2.783609     2.2723     2.2857     0.0048  0.1782625 0.0000e+00
        777      6.820    14.7837    14.5603   2.781898   2.783612     2.2711     2.2857     0.0048  0.1782625 0.0000e+00
        778      6.911    14.7886    14.5655   2.781939   2.783666     2.2711     2.2857     0.0048  0.1782625 0.0000e+00
        779      6.878    14.7883    14.5680   2.781954   2.783679     2.2698     2.2857     0.0048  0.1782625 0.0000e+00
        780      6.936    14.7819    14.5684   2.781985   2.783609     2.2698     2.2857     0.0048  0.1782625 0.0000e+00
        781      6.911    14.7717    14.5760   2.781957   2.783651     2.2698     2.2869     0.0048  0.1782625 0.0000e+00
        782      7.002    14.7751    14.5882   2.781918   2.783722     2.2698     2.2857     0.0048  0.1782625 0.0000e+00
        783      6.977    14.7800    14.5976   2.782034   2.783745     2.2698     2.2869     0.0048  0.1782625 0.0000e+00
        784      7.001    14.7872    14.6070   2.782112   2.783799     2.2686     2.2857     0.0048  0.1782625 0.0000e+00
        785      7.001    14.8034    14.6178   2.782208   2.783864     2.2686     2.2857     0.0048  0.1782625 0.0000e+00
        786      7.034    14.8181    14.6294   2.782249   2.783889     2.2686     2.2857     0.0048  0.1782625 0.0000e+00
        787      7.125    14.8280    14.6375   2.782234   2.783987     2.2686     2.2857     0.0048  0.1782625 0.0000e+00
        788      7.059    14.8242    14.6339   2.782230   2.783991     2.2674     2.2857     0.0048  0.1782625 0.0000e+00
        789      7.158    14.8280    14.6342   2.782288   2.783999     2.2674     2.2857     0.0048  0.1782625 0.0000e+00
        790      7.125    14.8366    14.6415   2.782387   2.784023     2.2674     2.2845     0.0048  0.1743553 0.0000e+00
        791      7.158    14.8393    14.6420   2.782365   2.783979     2.2662     2.2845     0.0046  0.1665409 0.0000e+00
        792      7.182    14.8375    14.6417   2.782375   2.783958     2.2662     2.2845     0.0048  0.1645873 0.0000e+00
        793      7.182    14.8440    14.6427   2.782481   2.784006     2.2662     2.2845     0.0048  0.1650757 0.0000e+00
        794      7.224    14.8464    14.6473   2.782464   2.784005     2.2662     2.2845     0.0048  0.1650757 0.0000e+00
        795      7.240    14.8469    14.6527   2.782542   2.784075     2.2662     2.2833     0.0046  0.1650757 0.0000e+00
        796      7.306    14.8518    14.6585   2.782463   2.784131     2.2649     2.2833     0.0048  0.1650757 0.0000e+00
        797      7.281    14.8582    14.6673   2.782601   2.784145     2.2649     2.2833     0.0048  0.1650757 0.0000e+00
        798      7.306    14.8615    14.6773   2.782615   2.784148     2.2649     2.2833     0.0048  0.1650757 0.0000e+00
        799      7.339    14.8729    14.6929   2.782653   2.784230     2.2637     2.2820     0.0048  0.1650757 0.0000e+00
        800      7.306    14.8882    14.7080   2.782789   2.784300     2.2637     2.2820     0.0048  0.1650757 0.0000e+00
        801      7.429    14.8979    14.7177   2.782761   2.784344     2.2637     2.2820     0.0048  0.1650757 0.0000e+00
        802      7.405    14.9058    14.7200   2.782894   2.784349     2.2637     2.2808     0.0048  0.1650757 0.0000e+00
        803      7.363    14.9092    14.7286   2.782901   2.784451     2.2625     2.2808     0.0048  0.1650757 0.0000e+00
        804      7.487    14.9087    14.7453   2.782877   2.784511     2.2625     2.2808     0.0048  0.1650757 0.0000e+00
        805      7.462    14.9052    14.7609   2.782993   2.784555     2.2625     2.2808     0.0048  0.1650757 0.0000e+00
        806      7.429    14.9009    14.7780   2.782868   2.784648     2.2625     2.2796     0.0048  0.1650757 0.0000e+00
        807      7.553    14.9038    14.7968   2.782987   2.784741     2.2625     2.2796     0.0048  0.1650757 0.0000e+00
        808      7.528    14.9036    14.8130   2.782981   2.784820     2.2625     2.2796     0.0048  0.1655641 0.0000e+00
        809      7.553    14.9001    14.8178   2.782924   2.784853     2.2625     2.2784     0.0048  0.1650757 0.0000e+00
        810      7.586    14.8963    14.8186   2.783055   2.784812     2.2613     2.2784     0.0048  0.1650757 0.0000e+00
        811      7.610    14.8959    14.8173   2.782994   2.784786     2.2613     2.2772     0.0048  0.1655641 0.0000e+00
        812      7.610    14.9028    14.8186   2.783118   2.784832     2.2613     2.2772     0.0048  0.1655641 0.0000e+00
        813      7.643    14.9087    14.8235   2.783152   2.784920     2.2613     2.2772     0.0048  0.1650757 0.0000e+00
        814      7.610    14.9102    14.8285   2.783099   2.784885     2.2601     2.2759     0.0048  0.1650757 0.0000e+00
        815      7.668    14.9211    14.8422   2.783297   2.784910     2.2601     2.2759     0.0048  0.1655641 0.0000e+00
        816      7.767    14.9370    14.8551   2.783289   2.784986     2.2613     2.2759     0.0046  0.1680061 0.0000e+00
        817      7.668    14.9542    14.8644   2.783468   2.784994     2.2613     2.2747     0.0046  0.1694713 0.0000e+00
        818      7.791    14.9682    14.8700   2.783635   2.784961     2.2601     2.2747     0.0046  0.1704481 0.0000e+00
        819      7.767    14.9706    14.8741   2.783600   2.785055     2.2601     2.2735     0.0046  0.1694713 0.0000e+00
        820      7.734    14.9623    14.8797   2.783681   2.785118     2.2601     2.2735     0.0046  0.1704481 0.0000e+00
        821      7.857    14.9657    14.8851   2.783682   2.785036     2.2601     2.2723     0.0046  0.1694713 0.0000e+00
        822      7.832    14.9723    14.8948   2.783745   2.785088     2.2588     2.2723     0.0046  0.1704481 0.0000e+00
        823      7.857    14.9747    14.8983   2.783787   2.785095     2.2601     2.2723     0.0046  0.1704481 0.0000e+00
        824      7.890    14.9775    14.8938   2.783689   2.785134     2.2601     2.2711     0.0046  0.1704481 0.0000e+00
        825      7.857    14.9802    14.8904   2.783898   2.785173     2.2601     2.2698     0.0046  0.1694713 0.0000e+00
        826      7.972    14.9857    14.8884   2.783902   2.785126     2.2601     2.2698     0.0046  0.1694713 0.0000e+00
        827      7.890    14.9879    14.8888   2.783829   2.785063     2.2576     2.2698     0.0046  0.1694713 0.0000e+00
        828      7.972    14.9857    14.8889   2.784100   2.785056     2.2588     2.2686     0.0046  0.1704481 0.0000e+00
        829      7.972    14.9943    14.8933   2.784139   2.785089     2.2588     2.2686     0.0046  0.1704481 0.0000e+00
        830      8.013    15.0043    14.8992   2.784177   2.785174     2.2588     2.2674     0.0046  0.1694713 0.0000e+00
        831      8.038    15.0074    14.9013   2.784355   2.785261     2.2588     2.2674     0.0046  0.1704481 0.0000e+00
        832      8.038    15.0245    14.8965   2.784318   2.785273     2.2588     2.2662     0.0046  0.1704481 0.0000e+00
        833      8.071    15.0414    14.8926   2.784425   2.785214     2.2576     2.2662     0.0046  0.1694713 0.0000e+00
        834      7.972    15.0380    14.8920   2.784557   2.785190     2.2576     2.2650     0.0046  0.1694713 0.0000e+00
        835      8.219    15.0353    14.8861   2.784528   2.785171     2.2576     2.2650     0.0046  0.1704481 0.0000e+00
        836      8.137    15.0295    14.8834   2.784543   2.785165     2.2576     2.2637     0.0046  0.1694713 0.0000e+00
        837      8.162    15.0226    14.8892   2.784483   2.785231     2.2576     2.2637     0.0046  0.1704481 0.0000e+00
        838      8.194    15.0196    14.9039   2.784444   2.785334     2.2576     2.2625     0.0046  0.1704481 0.0000e+00
        839      8.161    15.0154    14.9175   2.784578   2.785407     2.2576     2.2625     0.0046  0.1694713 0.0000e+00
        840      8.219    15.0014    14.9247   2.784605   2.785311     2.2564     2.2613     0.0046  0.1694713 0.0000e+00
        841      8.260    14.9874    14.9270   2.784432   2.785352     2.2564     2.2613     0.0046  0.1728901 0.0000e+00
        842      8.285    14.9870    14.9272   2.784586   2.785373     2.2564     2.2601     0.0048  0.1782625 0.0000e+00
        843      8.285    14.9910    14.9268   2.784807   2.785353     2.2564     2.2588     0.0048  0.1792393 0.0000e+00
        844      8.318    14.9918    14.9242   2.784649   2.785450     2.2564     2.2588     0.0048  0.1787509 0.0000e+00
        845      8.343    14.9945    14.9247   2.784714   2.785482     2.2564     2.2576     0.0048  0.1787509 0.0000e+00
        846      8.342    15.0016    14.9297   2.784882   2.785426     2.2564     2.2576     0.0048  0.1787509 0.0000e+00
        847      8.375    15.0085    14.9334   2.784774   2.785451     2.2564     2.2576     0.0048  0.1787509 0.0000e+00
        848      8.400    15.0110    14.9314   2.784832   2.785479     2.2564     2.2564     0.0048  0.1787509 0.0000e+00
        849      8.400    15.0068    14.9170   2.785004   2.785460     2.2564     2.2552     0.0048  0.1787509 0.0000e+00
        850      8.441    14.9997    14.9172   2.784842   2.785487     2.2564     2.2540     0.0048  0.1787509 0.0000e+00
        851      8.466    15.0099    14.9197   2.784904   2.785512     2.2564     2.2540     0.0048  0.1787509 0.0000e+00
        852      8.466    15.0304    14.9292   2.785037   2.785564     2.2552     2.2540     0.0048  0.1787509 0.0000e+00
        853      8.565    15.0481    14.9421   2.785025   2.785630     2.2552     2.2527     0.0048  0.1787509 0.0000e+00
        854      8.466    15.0665    14.9473   2.785203   2.785686     2.2552     2.2527     0.0048  0.1787509 0.0000e+00
        855      8.589    15.0779    14.9444   2.785414   2.785717     2.2552     2.2515     0.0048  0.1787509 0.0000e+00
        856      8.565    15.0813    14.9286   2.785259   2.785665     2.2552     2.2515     0.0048  0.1787509 0.0000e+00
        857      8.589    15.0835    14.9216   2.785304   2.785681     2.2552     2.2503     0.0048  0.1787509 0.0000e+00
        858      8.647    15.0916    14.9282   2.785427   2.785749     2.2552     2.2491     0.0048  0.1787509 0.0000e+00
        859      8.622    15.1038    14.9403   2.785366   2.785860     2.2552     2.2491     0.0048  0.1787509 0.0000e+00
        860      8.647    15.1154    14.9647   2.785490   2.785901     2.2552     2.2479     0.0048  0.1787509 0.0000e+00
        861      8.705    15.1300    14.9852   2.785685   2.786032     2.2552     2.2466     0.0048  0.1787509 0.0000e+00
        862      8.688    15.1430    14.9930   2.785599   2.786035     2.2540     2.2466     0.0048  0.1787509 0.0000e+00
        863      8.705    15.1523    15.0060   2.785585   2.786051     2.2540     2.2466     0.0048  0.1787509 0.0000e+00
        864      8.771    15.1612    15.0316   2.785693   2.786223     2.2540     2.2454     0.0048  0.1787509 0.0000e+00
        865      8.746    15.1714    15.0535   2.785730   2.786328     2.2540     2.2454     0.0048  0.1787509 0.0000e+00
        866      8.828    15.1750    15.0679   2.785716   2.786407     2.2540     2.2442     0.0048  0.1792393 0.0000e+00
        867      8.828    15.1812    15.0792   2.785754   2.786491     2.2540     2.2442     0.0046  0.1826581 0.0000e+00
        868      8.804    15.1860    15.0864   2.785786   2.786554     2.2540     2.2430     0.0046  0.1846117 0.0000e+00
        869      8.828    15.1877    15.0906   2.785758   2.786514     2.2540     2.2430     0.0046  0.1846117 0.0000e+00
        870      8.927    15.1927    15.0910   2.785823   2.786599     2.2540     2.2418     0.0046  0.1846117 0.0000e+00
        871      8.894    15.1976    15.0923   2.785814   2.786584     2.2540     2.2418     0.0046  0.1846117 0.0000e+00
        872      8.894    15.2037    15.0938   2.785883   2.786609     2.2540     2.2405     0.0046  0.1846117 0.0000e+00
        873      8.993    15.2107    15.0991   2.785892   2.786728     2.2540     2.2393     0.0046  0.1846117 0.0000e+00
        874      8.952    15.2219    15.1069   2.785950   2.786761     2.2527     2.2393     0.0046  0.1846117 0.0000e+00
        875      8.952    15.2253    15.1122   2.785965   2.786821     2.2540     2.2393     0.0046  0.1846117 0.0000e+00
        876      9.051    15.2144    15.1169   2.785916   2.786864     2.2540     2.2381     0.0046  0.1846117 0.0000e+00
        877      9.018    15.2036    15.1156   2.785893   2.786888     2.2527     2.2381     0.0046  0.1846117 0.0000e+00
        878      9.075    15.2063    15.1110   2.785918   2.786851     2.2527     2.2381     0.0046  0.1846117 0.0000e+00
        879      9.051    15.2193    15.1122   2.786037   2.786832     2.2527     2.2369     0.0046  0.1846117 0.0000e+00
        880      9.133    15.2317    15.1159   2.786142   2.786897     2.2527     2.2369     0.0046  0.1846117 0.0000e+00
        881      9.075    15.2366    15.1103   2.786067   2.786900     2.2527     2.2356     0.0046  0.1846117 0.0000e+00
        882      9.174    15.2315    15.1017   2.786093   2.786982     2.2527     2.2356     0.0044  0.1846117 0.0000e+00
        883      9.133    15.2228    15.0947   2.786122   2.787022     2.2527     2.2344     0.0046  0.1846117 0.0000e+00
        884      9.199    15.2176    15.0840   2.786083   2.787016     2.2515     2.2344     0.0046  0.1846117 0.0000e+00
        885      9.232    15.2190    15.0747   2.786141   2.787000     2.2515     2.2332     0.0046  0.1846117 0.0000e+00
        886      9.199    15.2248    15.0689   2.786221   2.786993     2.2515     2.2332     0.0046  0.1846117 0.0000e+00
        887      9.257    15.2269    15.0624   2.786217   2.786945     2.2515     2.2332     0.0046  0.1846117 0.0000e+00
        888      9.232    15.2246    15.0577   2.786223   2.786910     2.2515     2.2320     0.0046  0.1846117 0.0000e+00
        889      9.380    15.2249    15.0514   2.786325   2.786943     2.2515     2.2320     0.0046  0.1846117 0.0000e+00
        890      9.322    15.2204    15.0403   2.786333   2.786943     2.2515     2.2308     0.0046  0.1841233 0.0000e+00
        891      9.322    15.2144    15.0325   2.786276   2.787046     2.2515     2.2308     0.0046  0.1846117 0.0000e+00
        892      9.355    15.2135    15.0387   2.786347   2.787123     2.2515     2.2295     0.0046  0.1841233 0.0000e+00
        893      9.380    15.2205    15.0548   2.786416   2.787243     2.2515     2.2295     0.0048  0.1831465 0.0000e+00
        894      9.438    15.2257    15.0558   2.786370   2.787273     2.2515     2.2295     0.0048  0.1826581 0.0000e+00
        895      9.421    15.2249    15.0595   2.786371   2.787324     2.2515     2.2283     0.0048  0.1831465 0.0000e+00
        896      9.438    15.2130    15.0628   2.786529   2.787358     2.2515     2.2283     0.0048  0.1831465 0.0000e+00
        897      9.504    15.2031    15.0684   2.786409   2.787396     2.2503     2.2271     0.0048  0.1831465 0.0000e+00
        898      9.479    15.1973    15.0662   2.786461   2.787440     2.2503     2.2271     0.0048  0.1826581 0.0000e+00
        899      9.561    15.2027    15.0340   2.786601   2.787341     2.2503     2.2259     0.0048  0.1831465 0.0000e+00
        900      9.504    15.2223    15.0089   2.786654   2.787277     2.2503     2.2259     0.0048  0.1831465 0.0000e+00
        901      9.603    15.2351    15.0019   2.786616   2.787320     2.2503     2.2259     0.0048  0.1831465 0.0000e+00
        902      9.561    15.2354    14.9947   2.786784   2.787362     2.2503     2.2247     0.0048  0.1831465 0.0000e+00
        903      9.627    15.2305    14.9901   2.786780   2.787394     2.2503     2.2247     0.0048  0.1826581 0.0000e+00
        904      9.602    15.2241    14.9808   2.786653   2.787344     2.2503     2.2234     0.0048  0.1831465 0.0000e+00
        905      9.685    15.2174    14.9757   2.786685   2.787384     2.2503     2.2234     0.0048  0.1831465 0.0000e+00
        906      9.685    15.2039    14.9789   2.786795   2.787393     2.2503     2.2234     0.0048  0.1831465 0.0000e+00
        907      9.660    15.2049    14.9849   2.786836   2.787541     2.2491     2.2222     0.0048  0.1831465 0.0000e+00
        908      9.751    15.2215    14.9903   2.786770   2.787617     2.2491     2.2222     0.0048  0.1831465 0.0000e+00
        909      9.751    15.2359    14.9964   2.786950   2.787722     2.2491     2.2210     0.0048  0.1831465 0.0000e+00
        910      9.726    15.2459    15.0077   2.787058   2.787762     2.2491     2.2210     0.0048  0.1831465 0.0000e+00
        911      9.808    15.2544    15.0248   2.786907   2.787909     2.2491     2.2198     0.0048  0.1831465 0.0000e+00
        912      9.808    15.2641    15.0404   2.786971   2.787992     2.2503     2.2186     0.0048  0.1831465 0.0000e+00
        913      9.850    15.2760    15.0501   2.787102   2.788116     2.2491     2.2210     0.0048  0.1831465 0.0000e+00
        914      9.808    15.2783    15.0723   2.787077   2.788304     2.2491     2.2198     0.0048  0.1831465 0.0000e+00
        915      9.866    15.2732    15.1015   2.786955   2.788512     2.2479     2.2186     0.0048  0.1831465 0.0000e+00
        916      9.907    15.2644    15.1151   2.787092   2.788639     2.2491     2.2161     0.0048  0.1831465 0.0000e+00
        917      9.932    15.2579    15.1192   2.787152   2.788703     2.2491     2.2186     0.0048  0.1826581 0.0000e+00
        918      9.932    15.2564    15.1093   2.786984   2.788765     2.2491     2.2186     0.0048  0.1728901 0.0000e+00
        919      9.990    15.2601    15.1034   2.787014   2.788785     2.2491     2.2173     0.0048  0.1670293 0.0000e+00
        920      9.965    15.2665    15.1040   2.787152   2.788787     2.2491     2.2161     0.0048  0.1665409 0.0000e+00
        921     10.056    15.2698    15.0986   2.787089   2.788809     2.2479     2.2161     0.0048  0.1670293 0.0000e+00
        922      9.990    15.2730    15.0835   2.787095   2.788821     2.2479     2.2161     0.0048  0.1670293 0.0000e+00
        923     10.089    15.2730    15.0650   2.787176   2.788856     2.2479     2.2149     0.0048  0.1670293 0.0000e+00
        924     10.056    15.2734    15.0477   2.787311   2.788817     2.2479     2.2149     0.0048  0.1670293 0.0000e+00
        925     10.056    15.2811    15.0374   2.787309   2.788842     2.2491     2.2149     0.0048  0.1670293 0.0000e+00
        926     10.154    15.2887    15.0345   2.787348   2.788908     2.2479     2.2137     0.0048  0.1670293 0.0000e+00
        927     10.113    15.2887    15.0482   2.787332   2.789032     2.2479     2.2137     0.0048  0.1670293 0.0000e+00
        928     10.171    15.2852    15.0728   2.787318   2.789272     2.2479     2.2137     0.0048  0.1670293 0.0000e+00
        929     10.212    15.2783    15.0703   2.787269   2.789301     2.2479     2.2137     0.0048  0.1670293 0.0000e+00
        930     10.171    15.2675    15.0637   2.787367   2.789383     2.2479     2.2124     0.0048  0.1670293 0.0000e+00
        931     10.237    15.2568    15.0784   2.787369   2.789532     2.2479     2.2124     0.0048  0.1670293 0.0000e+00
        932     10.278    15.2488    15.1040   2.787327   2.789701     2.2479     2.2124     0.0048  0.1670293 0.0000e+00
        933     10.237    15.2401    15.1200   2.787121   2.789870     2.2479     2.2112     0.0048  0.1670293 0.0000e+00
        934     10.294    15.2331    15.1297   2.787370   2.790010     2.2479     2.2112     0.0046  0.1670293 0.0000e+00
        935     10.294    15.2305    15.1384   2.787323   2.790097     2.2479     2.2112     0.0048  0.1670293 0.0000e+00
        936     10.336    15.2295    15.1462   2.787186   2.790228     2.2479     2.2112     0.0048  0.1670293 0.0000e+00
        937     10.360    15.2310    15.1402   2.787274   2.790364     2.2479     2.2112     0.0048  0.1670293 0.0000e+00
        938     10.418    15.2457    15.1280   2.787477   2.790414     2.2479     2.2100     0.0048  0.1670293 0.0000e+00
        939     10.393    15.2552    15.1115   2.787564   2.790474     2.2479     2.2100     0.0048  0.1670293 0.0000e+00
        940     10.418    15.2582    15.0943   2.787555   2.790520     2.2479     2.2100     0.0048  0.1670293 0.0000e+00
        941     10.418    15.2603    15.0803   2.787547   2.790578     2.2466     2.2100     0.0048  0.1670293 0.0000e+00
        942     10.459    15.2605    15.0652   2.787635   2.790704     2.2466     2.2088     0.0048  0.1670293 0.0000e+00
        943     10.476    15.2654    15.0589   2.787735   2.790900     2.2466     2.2088     0.0051  0.1553077 0.0000e+00
        944     10.542    15.2624    15.0614   2.787714   2.791099     2.2479     2.2088     0.0059  0.1338181 0.0000e+00
        945     10.459    15.2646    15.0704   2.787664   2.791429     2.2466     2.2088     0.0060  0.1274689 0.0000e+00
        946     10.542    15.2879    15.0725   2.787771   2.791769     2.2466     2.2088     0.0060  0.1274689 0.0000e+00
        947     10.542    15.3107    15.0716   2.787946   2.792195     2.2466     2.2076     0.0060  0.1284457 0.0000e+00
        948     10.542    15.3196    15.0742   2.788030   2.792591     2.2466     2.2076     0.0060  0.1289341 0.0000e+00
        949     10.583    15.2828    15.0792   2.787752   2.793108     2.2466     2.2076     0.0060  0.1289341 0.0000e+00
        950     10.599    15.2204    15.0759   2.787673   2.793525     2.2466     2.2076     0.0060  0.1289341 0.0000e+00
        951     10.541    15.1391    15.0298   2.787523   2.793749     2.2479     2.2076     0.0060  0.1289341 0.0000e+00
        952     10.640    15.0435    14.9434   2.787158   2.793851     2.2466     2.2076     0.0060  0.1284457 0.0000e+00
        953     10.599    14.9468    14.8098   2.786693   2.793859     2.2466     2.2076     0.0060  0.1289341 0.0000e+00
        954     10.665    14.8674    14.6790   2.786556   2.793864     2.2466     2.2076     0.0060  0.1284457 0.0000e+00
        955     10.583    14.8095    14.5870   2.786461   2.793873     2.2466     2.2063     0.0060  0.1289341 0.0000e+00
        956     10.599    14.7553    14.4940   2.786306   2.793766     2.2466     2.2063     0.0060  0.1289341 0.0000e+00
        957     10.599    14.6907    14.3881   2.786030   2.793624     2.2466     2.2063     0.0060  0.1284457 0.0000e+00
        958     10.665    14.6123    14.2774   2.785758   2.793727     2.2466     2.2063     0.0060  0.1284457 0.0000e+00
        959     10.640    14.5372    14.1655   2.785586   2.793972     2.2466     2.2063     0.0060  0.1284457 0.0000e+00
        960     10.599    14.4644    14.0615   2.785462   2.794245     2.2466     2.2063     0.0060  0.1284457 0.0000e+00
        961     10.665    14.3852    13.9773   2.784985   2.794302     2.2466     2.2063     0.0060  0.1284457 0.0000e+00
        962     10.640    14.2861    13.9258   2.784639   2.794379     2.2479     2.2063     0.0060  0.1284457 0.0000e+00
        963     10.723    14.2068    13.8898   2.784377   2.794357     2.2466     2.2063     0.0060  0.1284457 0.0000e+00
