* Sea-Bird SBE 9 Data File:
* FileName = C:\Users\CTD-User\Desktop\MAR440\Station 4 210921.hex
* Software Version Seasave V 7.26.2.13
* Temperature SN = 6313
* Conductivity SN = 4758
* Number of Bytes Per Scan = 30
* Number of Voltage Words = 4
* Number of Scans Averaged by the Deck Unit = 1
* System UpLoad Time = Sep 21 2021 11:52:02
* SBE 11plus V 5.1d
* number of scans to average = 1
* pressure baud rate = 9600
* NMEA baud rate = 4800
* GPIB address = 1
* advance primary conductivity  0.073 seconds
* advance secondary conductivity  0.073 seconds
* S>
** Ship:
** Station:
** Operator:
* System UTC = Sep 21 2021 09:52:02
# nquan = 11
# nvalues = 963                         
# units = specified
# name 0 = scan: Scan Count
# name 1 = prDM: Pressure, Digiquartz [db]
# name 2 = t090C: Temperature [ITS-90, deg C]
# name 3 = t190C: Temperature, 2 [ITS-90, deg C]
# name 4 = c0S/m: Conductivity [S/m]
# name 5 = c1S/m: Conductivity, 2 [S/m]
# name 6 = sbeox0V: Oxygen raw, SBE 43 [V]
# name 7 = sbeox1V: Oxygen raw, SBE 43, 2 [V]
# name 8 = flECO-AFL: Fluorescence, WET Labs ECO-AFL/FL [mg/m^3]
# name 9 = upoly0: Upoly 0, Turbidity
# name 10 = flag:  0.000e+00
# span 0 =          1,        963       
# span 1 =      0.567,     10.540       
# span 2 =    11.6500,    15.2378       
# span 3 =    11.6440,    15.0610       
# span 4 =  -0.000120,   2.791269       
# span 5 =   0.026556,   2.797579       
# span 6 =     2.2470,     3.1434       
# span 7 =     2.1801,     2.9063       
# span 8 =     0.0033,     0.0317       
# span 9 =  0.0811493,  0.2341219       
# span 10 = 0.0000e+00, 0.0000e+00      
# interval = seconds: 0.0416667
# start_time = Sep 21 2021 09:52:02 [System UTC, header]
# bad_flag = -9.990e-29
# <Sensors count="13" >
#   <sensor Channel="1" >
#     <!-- Frequency 0, Temperature -->
#     <TemperatureSensor SensorID="55" >
#       <SerialNumber>6313</SerialNumber>
#       <CalibrationDate>09-Mar-18</CalibrationDate>
#       <UseG_J>1</UseG_J>
#       <A>0.00000000e+000</A>
#       <B>0.00000000e+000</B>
#       <C>0.00000000e+000</C>
#       <D>0.00000000e+000</D>
#       <F0_Old>0.000</F0_Old>
#       <G>4.35704303e-003</G>
#       <H>6.37274767e-004</H>
#       <I>2.22763328e-005</I>
#       <J>2.08152216e-006</J>
#       <F0>1000.000</F0>
#       <Slope>1.00000000</Slope>
#       <Offset>0.0000</Offset>
#     </TemperatureSensor>
#   </sensor>
#   <sensor Channel="2" >
#     <!-- Frequency 1, Conductivity -->
#     <ConductivitySensor SensorID="3" >
#       <SerialNumber>4758</SerialNumber>
#       <CalibrationDate>15-Mar-18</CalibrationDate>
#       <UseG_J>1</UseG_J>
#       <!-- Cell const and series R are applicable only for wide range sensors. -->
#       <SeriesR>0.0000</SeriesR>
#       <CellConst>2000.0000</CellConst>
#       <ConductivityType>0</ConductivityType>
#       <Coefficients equation="0" >
#         <A>0.00000000e+000</A>
#         <B>0.00000000e+000</B>
#         <C>0.00000000e+000</C>
#         <D>0.00000000e+000</D>
#         <M>0.0</M>
#         <CPcor>-9.57000000e-008</CPcor>
#       </Coefficients>
#       <Coefficients equation="1" >
#         <G>-1.00074376e+001</G>
#         <H>1.25450981e+000</H>
#         <I>7.09789702e-005</I>
#         <J>4.76788446e-005</J>
#         <CPcor>-9.57000000e-008</CPcor>
#         <CTcor>3.2500e-006</CTcor>
#         <!-- WBOTC not applicable unless ConductivityType = 1. -->
#         <WBOTC>0.00000000e+000</WBOTC>
#       </Coefficients>
#       <Slope>1.00000000</Slope>
#       <Offset>0.00000</Offset>
#     </ConductivitySensor>
#   </sensor>
#   <sensor Channel="3" >
#     <!-- Frequency 2, Pressure, Digiquartz with TC -->
#     <PressureSensor SensorID="45" >
#       <SerialNumber>0469</SerialNumber>
#       <CalibrationDate>15-Oct-10 </CalibrationDate>
#       <C1>-5.103916e+004</C1>
#       <C2>-5.848312e-001</C2>
#       <C3>1.064190e-002</C3>
#       <D1>4.421900e-002</D1>
#       <D2>0.000000e+000</D2>
#       <T1>2.997614e+001</T1>
#       <T2>-4.856324e-004</T2>
#       <T3>3.581030e-006</T3>
#       <T4>3.100110e-009</T4>
#       <Slope>1.00004801</Slope>
#       <Offset>-0.07312</Offset>
#       <T5>0.000000e+000</T5>
#       <AD590M>1.291980e-002</AD590M>
#       <AD590B>-9.336047e+000</AD590B>
#     </PressureSensor>
#   </sensor>
#   <sensor Channel="4" >
#     <!-- Frequency 3, Temperature, 2 -->
#     <TemperatureSensor SensorID="55" >
#       <SerialNumber>6314</SerialNumber>
#       <CalibrationDate>07-Mar-18</CalibrationDate>
#       <UseG_J>1</UseG_J>
#       <A>0.00000000e+000</A>
#       <B>0.00000000e+000</B>
#       <C>0.00000000e+000</C>
#       <D>0.00000000e+000</D>
#       <F0_Old>0.000</F0_Old>
#       <G>4.39394373e-003</G>
#       <H>6.43851423e-004</H>
#       <I>2.33768335e-005</I>
#       <J>2.18520633e-006</J>
#       <F0>1000.000</F0>
#       <Slope>1.00000000</Slope>
#       <Offset>0.0000</Offset>
#     </TemperatureSensor>
#   </sensor>
#   <sensor Channel="5" >
#     <!-- Frequency 4, Conductivity, 2 -->
#     <ConductivitySensor SensorID="3" >
#       <SerialNumber>4759</SerialNumber>
#       <CalibrationDate>15-Mar-18</CalibrationDate>
#       <UseG_J>1</UseG_J>
#       <!-- Cell const and series R are applicable only for wide range sensors. -->
#       <SeriesR>0.0000</SeriesR>
#       <CellConst>2000.0000</CellConst>
#       <ConductivityType>0</ConductivityType>
#       <Coefficients equation="0" >
#         <A>0.00000000e+000</A>
#         <B>0.00000000e+000</B>
#         <C>0.00000000e+000</C>
#         <D>0.00000000e+000</D>
#         <M>0.0</M>
#         <CPcor>-9.57000000e-008</CPcor>
#       </Coefficients>
#       <Coefficients equation="1" >
#         <G>-9.92655810e+000</G>
#         <H>1.22836953e+000</H>
#         <I>7.27705124e-005</I>
#         <J>4.43760579e-005</J>
#         <CPcor>-9.57000000e-008</CPcor>
#         <CTcor>3.2500e-006</CTcor>
#         <!-- WBOTC not applicable unless ConductivityType = 1. -->
#         <WBOTC>0.00000000e+000</WBOTC>
#       </Coefficients>
#       <Slope>1.00000000</Slope>
#       <Offset>0.00000</Offset>
#     </ConductivitySensor>
#   </sensor>
#   <sensor Channel="6" >
#     <!-- A/D voltage 0, Oxygen, SBE 43 -->
#     <OxygenSensor SensorID="38" >
#       <SerialNumber>3671</SerialNumber>
#       <CalibrationDate>04-Apr-18</CalibrationDate>
#       <Use2007Equation>1</Use2007Equation>
#       <CalibrationCoefficients equation="0" >
#         <!-- Coefficients for Owens-Millard equation. -->
#         <Boc>0.0000</Boc>
#         <Soc>0.0000e+000</Soc>
#         <offset>0.0000</offset>
#         <Pcor>0.00e+000</Pcor>
#         <Tcor>0.0000</Tcor>
#         <Tau>0.0</Tau>
#       </CalibrationCoefficients>
#       <CalibrationCoefficients equation="1" >
#         <!-- Coefficients for Sea-Bird equation - SBE calibration in 2007 and later. -->
#         <Soc>4.9827e-001</Soc>
#         <offset>-0.5141</offset>
#         <A>-3.6016e-003</A>
#         <B> 1.6280e-004</B>
#         <C>-2.4237e-006</C>
#         <D0> 2.5826e+000</D0>
#         <D1> 1.92634e-004</D1>
#         <D2>-4.64803e-002</D2>
#         <E> 3.6000e-002</E>
#         <Tau20> 1.4900</Tau20>
#         <H1>-3.3000e-002</H1>
#         <H2> 5.0000e+003</H2>
#         <H3> 1.4500e+003</H3>
#       </CalibrationCoefficients>
#     </OxygenSensor>
#   </sensor>
#   <sensor Channel="7" >
#     <!-- A/D voltage 1, Free -->
#   </sensor>
#   <sensor Channel="8" >
#     <!-- A/D voltage 2, Oxygen, SBE 43, 2 -->
#     <OxygenSensor SensorID="38" >
#       <SerialNumber>3752</SerialNumber>
#       <CalibrationDate>02-Nov-18</CalibrationDate>
#       <Use2007Equation>1</Use2007Equation>
#       <CalibrationCoefficients equation="0" >
#         <!-- Coefficients for Owens-Millard equation. -->
#         <Boc>0.0000</Boc>
#         <Soc>0.0000e+000</Soc>
#         <offset>0.0000</offset>
#         <Pcor>0.00e+000</Pcor>
#         <Tcor>0.0000</Tcor>
#         <Tau>0.0</Tau>
#       </CalibrationCoefficients>
#       <CalibrationCoefficients equation="1" >
#         <!-- Coefficients for Sea-Bird equation - SBE calibration in 2007 and later. -->
#         <Soc>4.2712e-001</Soc>
#         <offset>-0.4717</offset>
#         <A>-3.9718e-003</A>
#         <B> 1.9806e-004</B>
#         <C>-2.8024e-006</C>
#         <D0> 2.5826e+000</D0>
#         <D1> 1.92634e-004</D1>
#         <D2>-4.64803e-002</D2>
#         <E> 3.6000e-002</E>
#         <Tau20> 1.3800</Tau20>
#         <H1>-3.3000e-002</H1>
#         <H2> 5.0000e+003</H2>
#         <H3> 1.4500e+003</H3>
#       </CalibrationCoefficients>
#     </OxygenSensor>
#   </sensor>
#   <sensor Channel="9" >
#     <!-- A/D voltage 3, Free -->
#   </sensor>
#   <sensor Channel="10" >
#     <!-- A/D voltage 4, User Polynomial -->
#     <UserPolynomialSensor SensorID="61" >
#       <SerialNumber>FLNTURT-5033</SerialNumber>
#       <CalibrationDate>3/8/18</CalibrationDate>
#       <SensorName>Turbidity</SensorName>
#       <A0>0.06300000</A0>
#       <A1>0.40000000</A1>
#       <A2>0.00000000</A2>
#       <A3>0.00000000</A3>
#     </UserPolynomialSensor>
#   </sensor>
#   <sensor Channel="11" >
#     <!-- A/D voltage 5, Fluorometer, WET Labs ECO-AFL/FL -->
#     <FluoroWetlabECO_AFL_FL_Sensor SensorID="20" >
#       <SerialNumber>FLNTURT-5033</SerialNumber>
#       <CalibrationDate>3/8/18</CalibrationDate>
#       <ScaleFactor>1.50000000e-001</ScaleFactor>
#       <!-- Dark output -->
#       <Vblank>0.0440</Vblank>
#     </FluoroWetlabECO_AFL_FL_Sensor>
#   </sensor>
#   <sensor Channel="12" >
#     <!-- A/D voltage 6, Altimeter -->
#     <AltimeterSensor SensorID="0" >
#       <SerialNumber>74132</SerialNumber>
#       <CalibrationDate></CalibrationDate>
#       <ScaleFactor>15.000</ScaleFactor>
#       <Offset>0.000</Offset>
#     </AltimeterSensor>
#   </sensor>
#   <sensor Channel="13" >
#     <!-- A/D voltage 7, Free -->
#   </sensor>
# </Sensors>
# datcnv_date = Sep 23 2021 14:31:15, 7.26.2.14 [datcnv_vars = 10]
# datcnv_in = C:\Users\CTD-User\Desktop\MAR440\day1\Station 4 210921.hex C:\Program Files (x86)\Sea-Bird\SeasaveV7\calib\0469_210817.xmlcon
# datcnv_skipover = 0
# datcnv_ox_hysteresis_correction = yes
# celltm_date = Sep 23 2021 15:15:35, 7.26.2.14
# celltm_in = C:\Users\CTD-User\Desktop\MAR440\day1\Station 4 210921.cnv
# celltm_alpha = 0.0400, 0.0400
# celltm_tau = 8.0000, 8.0000
# celltm_temp_sensor_use_for_cond = primary, secondary
# filter_date = Sep 23 2021 15:16:23, 7.26.2.14
# filter_in = C:\Users\CTD-User\Desktop\MAR440\day1\Station 4 210921_ctm.cnv
# filter_low_pass_tc_A = 0.500
# filter_low_pass_tc_B = 1.000
# filter_low_pass_A_vars = prDM t090C t190C c0S/m c1S/m sbeox0V sbeox1V upoly0
# filter_low_pass_B_vars =
# file_type = ascii
*END*
          1      0.603    11.7071    11.7034  -0.000120   0.026556     2.9372     2.8596     0.0035  0.0814552 0.0000e+00
          2      0.601    11.7067    11.7032  -0.000114   0.026572     2.9372     2.8596     0.0035  0.0814461 0.0000e+00
          3      0.599    11.7063    11.7031  -0.000111   0.026585     2.9372     2.8596     0.0033  0.0814363 0.0000e+00
          4      0.596    11.7058    11.7029  -0.000110   0.026595     2.9371     2.8596     0.0035  0.0814264 0.0000e+00
          5      0.594    11.7053    11.7027  -0.000108   0.026605     2.9371     2.8596     0.0035  0.0814182 0.0000e+00
          6      0.593    11.7047    11.7025  -0.000106   0.026615     2.9371     2.8596     0.0035  0.0814116 0.0000e+00
          7      0.591    11.7041    11.7022  -0.000102   0.026624     2.9371     2.8596     0.0035  0.0814056 0.0000e+00
          8      0.590    11.7035    11.7020  -0.000097   0.026633     2.9370     2.8596     0.0035  0.0814011 0.0000e+00
          9      0.588    11.7029    11.7017  -0.000092   0.026642     2.9370     2.8596     0.0033  0.0813980 0.0000e+00
         10      0.587    11.7023    11.7015  -0.000087   0.026652     2.9370     2.8596     0.0035  0.0813956 0.0000e+00
         11      0.586    11.7016    11.7012  -0.000082   0.026661     2.9370     2.8596     0.0033  0.0813937 0.0000e+00
         12      0.585    11.7009    11.7009  -0.000077   0.026670     2.9370     2.8596     0.0033  0.0813914 0.0000e+00
         13      0.584    11.7002    11.7006  -0.000072   0.026679     2.9370     2.8596     0.0033  0.0813881 0.0000e+00
         14      0.583    11.6996    11.7003  -0.000067   0.026688     2.9369     2.8596     0.0033  0.0813835 0.0000e+00
         15      0.582    11.6988    11.6999  -0.000063   0.026697     2.9369     2.8596     0.0033  0.0813777 0.0000e+00
         16      0.581    11.6981    11.6996  -0.000059   0.026708     2.9369     2.8596     0.0033  0.0813706 0.0000e+00
         17      0.581    11.6973    11.6992  -0.000055   0.026720     2.9369     2.8596     0.0035  0.0813623 0.0000e+00
         18      0.580    11.6966    11.6987  -0.000052   0.026731     2.9369     2.8596     0.0033  0.0813525 0.0000e+00
         19      0.579    11.6957    11.6983  -0.000047   0.026743     2.9369     2.8596     0.0033  0.0813414 0.0000e+00
         20      0.578    11.6949    11.6977  -0.000041   0.026755     2.9369     2.8596     0.0033  0.0813287 0.0000e+00
         21      0.578    11.6941    11.6972  -0.000034   0.026767     2.9369     2.8596     0.0033  0.0813144 0.0000e+00
         22      0.577    11.6932    11.6966  -0.000026   0.026780     2.9369     2.8596     0.0033  0.0812984 0.0000e+00
         23      0.577    11.6923    11.6959  -0.000018   0.026794     2.9369     2.8596     0.0033  0.0812806 0.0000e+00
         24      0.576    11.6914    11.6953  -0.000009   0.026810     2.9369     2.8596     0.0035  0.0812617 0.0000e+00
         25      0.576    11.6905    11.6945 3.9827e-07   0.026825     2.9369     2.8596     0.0035  0.0812433 0.0000e+00
         26      0.575    11.6895    11.6938   0.000009   0.026837     2.9369     2.8596     0.0035  0.0812260 0.0000e+00
         27      0.575    11.6886    11.6930   0.000018   0.026849     2.9369     2.8596     0.0035  0.0812099 0.0000e+00
         28      0.574    11.6876    11.6921   0.000028   0.026864     2.9369     2.8596     0.0035  0.0811947 0.0000e+00
         29      0.574    11.6865    11.6912   0.000037   0.026883     2.9369     2.8596     0.0035  0.0811813 0.0000e+00
         30      0.573    11.6855    11.6903   0.000046   0.026905     2.9369     2.8596     0.0035  0.0811703 0.0000e+00
         31      0.573    11.6844    11.6893   0.000057   0.026928     2.9368     2.8596     0.0033  0.0811616 0.0000e+00
         32      0.572    11.6833    11.6884   0.000068   0.026956     2.9368     2.8596     0.0035  0.0811554 0.0000e+00
         33      0.572    11.6822    11.6874   0.000079   0.026985     2.9368     2.8596     0.0035  0.0811514 0.0000e+00
         34      0.571    11.6811    11.6863   0.000094   0.027016     2.9368     2.8596     0.0035  0.0811497 0.0000e+00
         35      0.571    11.6800    11.6853   0.000109   0.027045     2.9368     2.8596     0.0033  0.0811493 0.0000e+00
         36      0.570    11.6789    11.6842   0.000127   0.027076     2.9368     2.8596     0.0033  0.0811495 0.0000e+00
         37      0.569    11.6778    11.6831   0.000148   0.027109     2.9368     2.8596     0.0033  0.0811503 0.0000e+00
         38      0.569    11.6768    11.6819   0.000170   0.027145     2.9368     2.8596     0.0033  0.0811516 0.0000e+00
         39      0.569    11.6757    11.6808   0.000194   0.027187     2.9368     2.8596     0.0035  0.0811535 0.0000e+00
         40      0.568    11.6746    11.6796   0.000222   0.027234     2.9368     2.8596     0.0033  0.0811560 0.0000e+00
         41      0.568    11.6736    11.6784   0.000251   0.027286     2.9368     2.8596     0.0033  0.0811599 0.0000e+00
         42      0.569    11.6725    11.6772   0.000284   0.027343     2.9368     2.8596     0.0035  0.0811669 0.0000e+00
         43      0.569    11.6715    11.6759   0.000320   0.027406     2.9368     2.8596     0.0033  0.0811772 0.0000e+00
         44      0.569    11.6704    11.6746   0.000359   0.027474     2.9368     2.8596     0.0033  0.0811891 0.0000e+00
         45      0.569    11.6694    11.6733   0.000401   0.027549     2.9368     2.8596     0.0035  0.0812018 0.0000e+00
         46      0.569    11.6683    11.6720   0.000448   0.027629     2.9368     2.8596     0.0033  0.0812154 0.0000e+00
         47      0.569    11.6673    11.6706   0.000499   0.027716     2.9368     2.8596     0.0035  0.0812300 0.0000e+00
         48      0.570    11.6664    11.6692   0.000554   0.027811     2.9368     2.8596     0.0035  0.0812466 0.0000e+00
         49      0.570    11.6654    11.6678   0.000614   0.027916     2.9368     2.8596     0.0033  0.0812661 0.0000e+00
         50      0.571    11.6645    11.6664   0.000679   0.028031     2.9368     2.8596     0.0035  0.0812878 0.0000e+00
         51      0.571    11.6635    11.6650   0.000751   0.028156     2.9368     2.8596     0.0035  0.0813110 0.0000e+00
         52      0.571    11.6626    11.6636   0.000831   0.028294     2.9368     2.8596     0.0033  0.0813350 0.0000e+00
         53      0.571    11.6618    11.6621   0.000918   0.028445     2.9368     2.8596     0.0035  0.0813583 0.0000e+00
         54      0.571    11.6609    11.6607   0.001013   0.028607     2.9368     2.8596     0.0033  0.0813802 0.0000e+00
         55      0.571    11.6601    11.6593   0.001116   0.028782     2.9368     2.8596     0.0033  0.0814009 0.0000e+00
         56      0.571    11.6593    11.6580   0.001228   0.028971     2.9368     2.8596     0.0033  0.0814205 0.0000e+00
         57      0.571    11.6585    11.6566   0.001350   0.029177     2.9368     2.8596     0.0035  0.0814399 0.0000e+00
         58      0.571    11.6577    11.6553   0.001483   0.029405     2.9368     2.8596     0.0033  0.0814603 0.0000e+00
         59      0.571    11.6569    11.6541   0.001628   0.029655     2.9368     2.8596     0.0033  0.0814808 0.0000e+00
         60      0.571    11.6561    11.6530   0.001786   0.029929     2.9368     2.8596     0.0033  0.0815007 0.0000e+00
         61      0.571    11.6553    11.6518   0.001958   0.030226     2.9368     2.8596     0.0033  0.0815203 0.0000e+00
         62      0.570    11.6546    11.6508   0.002143   0.030548     2.9368     2.8596     0.0035  0.0815404 0.0000e+00
         63      0.570    11.6539    11.6498   0.002345   0.030899     2.9368     2.8596     0.0033  0.0815621 0.0000e+00
         64      0.571    11.6532    11.6489   0.002564   0.031282     2.9368     2.8596     0.0033  0.0815846 0.0000e+00
         65      0.571    11.6526    11.6480   0.002803   0.031702     2.9368     2.8596     0.0035  0.0816073 0.0000e+00
         66      0.572    11.6521    11.6472   0.003064   0.032159     2.9368     2.8596     0.0033  0.0816304 0.0000e+00
         67      0.572    11.6516    11.6465   0.003348   0.032654     2.9368     2.8596     0.0035  0.0816548 0.0000e+00
         68      0.572    11.6511    11.6459   0.003656   0.033191     2.9368     2.8596     0.0033  0.0816816 0.0000e+00
         69      0.572    11.6507    11.6453   0.003990   0.033774     2.9368     2.8596     0.0035  0.0817109 0.0000e+00
         70      0.572    11.6505    11.6449   0.004354   0.034409     2.9368     2.8596     0.0035  0.0817430 0.0000e+00
         71      0.572    11.6502    11.6445   0.004750   0.035099     2.9368     2.8596     0.0033  0.0817772 0.0000e+00
         72      0.572    11.6501    11.6442   0.005182   0.035850     2.9368     2.8596     0.0035  0.0818129 0.0000e+00
         73      0.573    11.6500    11.6440   0.005652   0.036668     2.9368     2.8596     0.0035  0.0818504 0.0000e+00
         74      0.573    11.6500    11.6440   0.006163   0.037558     2.9368     2.8596     0.0033  0.0818899 0.0000e+00
         75      0.574    11.6501    11.6440   0.006719   0.038525     2.9368     2.8596     0.0035  0.0819318 0.0000e+00
         76      0.573    11.6502    11.6442   0.007322   0.039575     2.9368     2.8596     0.0033  0.0819770 0.0000e+00
         77      0.573    11.6505    11.6446   0.007977   0.040715     2.9368     2.8596     0.0033  0.0820269 0.0000e+00
         78      0.573    11.6508    11.6451   0.008690   0.041955     2.9368     2.8596     0.0035  0.0820808 0.0000e+00
         79      0.572    11.6513    11.6457   0.009466   0.043304     2.9368     2.8596     0.0035  0.0821384 0.0000e+00
         80      0.572    11.6519    11.6465   0.010310   0.044771     2.9368     2.8596     0.0033  0.0822001 0.0000e+00
         81      0.572    11.6526    11.6475   0.011227   0.046367     2.9368     2.8596     0.0033  0.0822661 0.0000e+00
         82      0.572    11.6534    11.6487   0.012224   0.048102     2.9368     2.8596     0.0033  0.0823371 0.0000e+00
         83      0.571    11.6544    11.6501   0.013308   0.049988     2.9368     2.8596     0.0035  0.0824144 0.0000e+00
         84      0.570    11.6556    11.6518   0.014486   0.052039     2.9368     2.8596     0.0035  0.0824993 0.0000e+00
         85      0.570    11.6569    11.6536   0.015766   0.054266     2.9368     2.8596     0.0033  0.0825916 0.0000e+00
         86      0.569    11.6585    11.6557   0.017158   0.056687     2.9368     2.8596     0.0035  0.0826911 0.0000e+00
         87      0.569    11.6604    11.6581   0.018671   0.059318     2.9368     2.8596     0.0033  0.0827984 0.0000e+00
         88      0.568    11.6625    11.6607   0.020313   0.062179     2.9368     2.8596     0.0035  0.0829144 0.0000e+00
         89      0.568    11.6649    11.6637   0.022099   0.065288     2.9368     2.8596     0.0035  0.0830407 0.0000e+00
         90      0.568    11.6676    11.6670   0.024040   0.068667     2.9368     2.8596     0.0035  0.0831798 0.0000e+00
         91      0.567    11.6706    11.6707   0.026150   0.072342     2.9368     2.8596     0.0033  0.0833327 0.0000e+00
         92      0.567    11.6739    11.6747   0.028445   0.076337     2.9368     2.8596     0.0033  0.0834988 0.0000e+00
         93      0.567    11.6776    11.6791   0.030939   0.080679     2.9368     2.8596     0.0035  0.0836793 0.0000e+00
         94      0.567    11.6816    11.6840   0.033651   0.085399     2.9368     2.8596     0.0035  0.0838770 0.0000e+00
         95      0.568    11.6860    11.6894   0.036599   0.090527     2.9368     2.8596     0.0033  0.0840935 0.0000e+00
         96      0.568    11.6909    11.6953   0.039803   0.096101     2.9368     2.8596     0.0033  0.0843292 0.0000e+00
         97      0.569    11.6962    11.7017   0.043286   0.102163     2.9368     2.8596     0.0033  0.0845859 0.0000e+00
         98      0.569    11.7020    11.7088   0.047072   0.108754     2.9368     2.8596     0.0035  0.0848654 0.0000e+00
         99      0.569    11.7083    11.7165   0.051186   0.115918     2.9368     2.8596     0.0033  0.0851696 0.0000e+00
        100      0.570    11.7153    11.7249   0.055659   0.123702     2.9368     2.8596     0.0033  0.0854997 0.0000e+00
        101      0.570    11.7229    11.7341   0.060522   0.132161     2.9368     2.8596     0.0033  0.0858581 0.0000e+00
        102      0.571    11.7313    11.7441   0.065807   0.141354     2.9368     2.8596     0.0035  0.0862490 0.0000e+00
        103      0.572    11.7404    11.7550   0.071553   0.151348     2.9368     2.8596     0.0035  0.0866767 0.0000e+00
        104      0.572    11.7503    11.7669   0.077799   0.162213     2.9368     2.8597     0.0035  0.0871460 0.0000e+00
        105      0.573    11.7611    11.7799   0.084588   0.174024     2.9368     2.8597     0.0035  0.0876601 0.0000e+00
        106      0.573    11.7730    11.7940   0.091970   0.186862     2.9368     2.8597     0.0035  0.0882208 0.0000e+00
        107      0.574    11.7859    11.8095   0.099995   0.200815     2.9368     2.8597     0.0035  0.0888322 0.0000e+00
        108      0.574    11.8000    11.8262   0.108719   0.215979     2.9368     2.8597     0.0035  0.0895001 0.0000e+00
        109      0.575    11.8154    11.8445   0.118201   0.232464     2.9368     2.8597     0.0035  0.0902301 0.0000e+00
        110      0.576    11.8321    11.8644   0.128506   0.250385     2.9368     2.8597     0.0035  0.0910263 0.0000e+00
        111      0.577    11.8504    11.8861   0.139707   0.269863     2.9368     2.8597     0.0035  0.0918926 0.0000e+00
        112      0.578    11.8703    11.9096   0.151884   0.291035     2.9368     2.8597     0.0035  0.0928342 0.0000e+00
        113      0.579    11.8920    11.9353   0.165120   0.314047     2.9368     2.8597     0.0035  0.0938576 0.0000e+00
        114      0.580    11.9156    11.9632   0.179508   0.339060     2.9368     2.8597     0.0035  0.0949708 0.0000e+00
        115      0.581    11.9413    11.9935   0.195147   0.366249     2.9367     2.8597     0.0035  0.0961833 0.0000e+00
        116      0.582    11.9693    12.0264   0.212145   0.395802     2.9367     2.8597     0.0035  0.0975043 0.0000e+00
        117      0.584    11.9997    12.0623   0.230621   0.427924     2.9367     2.8598     0.0035  0.0989430 0.0000e+00
        118      0.585    12.0328    12.1012   0.250704   0.462840     2.9367     2.8598     0.0035  0.1005094 0.0000e+00
        119      0.587    12.0688    12.1436   0.272535   0.500789     2.9367     2.8598     0.0035  0.1022145 0.0000e+00
        120      0.589    12.1080    12.1896   0.296265   0.542038     2.9367     2.8598     0.0035  0.1040692 0.0000e+00
        121      0.591    12.1506    12.2397   0.322059   0.586873     2.9366     2.8598     0.0035  0.1060856 0.0000e+00
        122      0.594    12.1969    12.2940   0.350095   0.635602     2.9366     2.8598     0.0035  0.1082785 0.0000e+00
        123      0.596    12.2471    12.3529   0.380555   0.688553     2.9366     2.8598     0.0035  0.1106641 0.0000e+00
        124      0.599    12.3013    12.4167   0.413599   0.746081     2.9366     2.8599     0.0035  0.1132590 0.0000e+00
        125      0.602    12.3598    12.4855   0.449391   0.808550     2.9365     2.8599     0.0035  0.1160812 0.0000e+00
        126      0.606    12.4228    12.5598   0.488146   0.876323     2.9365     2.8599     0.0046  0.1191453 0.0000e+00
        127      0.610    12.4903    12.6397   0.530130   0.949688     2.9365     2.8599     0.0207  0.1223850 0.0000e+00
        128      0.614    12.5619    12.7246   0.575574   1.028685     2.9365     2.8600     0.0302  0.1256191 0.0000e+00
        129      0.618    12.6369    12.8129   0.624537   1.112843     2.9365     2.8600     0.0317  0.1286985 0.0000e+00
        130      0.623    12.7142    12.9019   0.676924   1.201402     2.9365     2.8600     0.0309  0.1315927 0.0000e+00
        131      0.629    12.7927    12.9889   0.732756   1.293889     2.9365     2.8601     0.0302  0.1343263 0.0000e+00
        132      0.635    12.8713    13.0720   0.792385   1.389570     2.9365     2.8601     0.0302  0.1369275 0.0000e+00
        133      0.641    12.9492    13.1505   0.856366   1.486648     2.9365     2.8602     0.0302  0.1394169 0.0000e+00
        134      0.648    13.0257    13.2238   0.925261   1.582784     2.9366     2.8602     0.0302  0.1418086 0.0000e+00
        135      0.656    13.1004    13.2920   0.999576   1.675791     2.9366     2.8603     0.0304  0.1441165 0.0000e+00
        136      0.664    13.1727    13.3552   1.079699   1.763938     2.9367     2.8603     0.0304  0.1463568 0.0000e+00
        137      0.672    13.2419    13.4137   1.165728   1.846255     2.9368     2.8604     0.0302  0.1485450 0.0000e+00
        138      0.681    13.3073    13.4678   1.256594   1.922458     2.9369     2.8605     0.0302  0.1506963 0.0000e+00
        139      0.690    13.3685    13.5177   1.349752   1.992698     2.9370     2.8605     0.0302  0.1528258 0.0000e+00
        140      0.700    13.4254    13.5637   1.443027   2.057347     2.9370     2.8606     0.0302  0.1549490 0.0000e+00
        141      0.710    13.4782    13.6062   1.535253   2.116823     2.9371     2.8607     0.0302  0.1570816 0.0000e+00
        142      0.720    13.5270    13.6454   1.624923   2.171542     2.9373     2.8608     0.0302  0.1592376 0.0000e+00
        143      0.730    13.5721    13.6815   1.710485   2.221888     2.9374     2.8609     0.0302  0.1614312 0.0000e+00
        144      0.741    13.6137    13.7148   1.791031   2.268212     2.9375     2.8610     0.0302  0.1636784 0.0000e+00
        145      0.752    13.6520    13.7454   1.866220   2.310841     2.9377     2.8612     0.0302  0.1659957 0.0000e+00
        146      0.763    13.6873    13.7737   1.936721   2.350071     2.9378     2.8613     0.0302  0.1683984 0.0000e+00
        147      0.774    13.7199    13.7997   2.003428   2.386165     2.9380     2.8614     0.0302  0.1709023 0.0000e+00
        148      0.785    13.7499    13.8237   2.066230   2.419394     2.9381     2.8616     0.0304  0.1735249 0.0000e+00
        149      0.797    13.7775    13.8458   2.124584   2.450020     2.9383     2.8618     0.0302  0.1762854 0.0000e+00
        150      0.808    13.8030    13.8661   2.178392   2.478260     2.9385     2.8620     0.0302  0.1792044 0.0000e+00
        151      0.820    13.8264    13.8848   2.227925   2.504307     2.9387     2.8622     0.0302  0.1823033 0.0000e+00
        152      0.832    13.8480    13.9020   2.273501   2.528322     2.9389     2.8624     0.0229  0.1855629 0.0000e+00
        153      0.843    13.8678    13.9179   2.315427   2.550432     2.9391     2.8626     0.0097  0.1888519 0.0000e+00
        154      0.855    13.8861    13.9324   2.353993   2.570772     2.9394     2.8629     0.0057  0.1919870 0.0000e+00
        155      0.868    13.9029    13.9459   2.389467   2.589477     2.9396     2.8632     0.0059  0.1948770 0.0000e+00
        156      0.880    13.9184    13.9582   2.422098   2.606680     2.9399     2.8635     0.0064  0.1975267 0.0000e+00
        157      0.893    13.9327    13.9696   2.452111   2.622501     2.9402     2.8639     0.0068  0.1999621 0.0000e+00
        158      0.905    13.9459    13.9801   2.479715   2.637050     2.9405     2.8642     0.0068  0.2022044 0.0000e+00
        159      0.918    13.9580    13.9898   2.505104   2.650428     2.9409     2.8646     0.0068  0.2042702 0.0000e+00
        160      0.931    13.9692    13.9987   2.528455   2.662729     2.9412     2.8650     0.0066  0.2061737 0.0000e+00
        161      0.944    13.9795    14.0069   2.549931   2.674038     2.9416     2.8655     0.0066  0.2079283 0.0000e+00
        162      0.957    13.9890    14.0144   2.569684   2.684435     2.9421     2.8659     0.0066  0.2095460 0.0000e+00
        163      0.970    13.9978    14.0214   2.587850   2.693993     2.9425     2.8664     0.0066  0.2110382 0.0000e+00
        164      0.983    14.0059    14.0278   2.604558   2.702778     2.9430     2.8669     0.0066  0.2124153 0.0000e+00
        165      0.996    14.0134    14.0336   2.619924   2.710851     2.9435     2.8675     0.0066  0.2136868 0.0000e+00
        166      1.009    14.0202    14.0390   2.634055   2.718271     2.9441     2.8681     0.0066  0.2148616 0.0000e+00
        167      1.022    14.0266    14.0440   2.647050   2.725088     2.9446     2.8687     0.0066  0.2159478 0.0000e+00
        168      1.035    14.0324    14.0486   2.658998   2.731350     2.9453     2.8694     0.0066  0.2169531 0.0000e+00
        169      1.048    14.0378    14.0528   2.669983   2.737103     2.9459     2.8700     0.0066  0.2178843 0.0000e+00
        170      1.061    14.0428    14.0567   2.680082   2.742386     2.9466     2.8708     0.0066  0.2187480 0.0000e+00
        171      1.075    14.0474    14.0602   2.689367   2.747236     2.9473     2.8715     0.0066  0.2195502 0.0000e+00
        172      1.088    14.0516    14.0635   2.697901   2.751690     2.9480     2.8723     0.0066  0.2202964 0.0000e+00
        173      1.101    14.0555    14.0665   2.705747   2.755778     2.9488     2.8731     0.0066  0.2209919 0.0000e+00
        174      1.113    14.0591    14.0693   2.712958   2.759529     2.9497     2.8739     0.0068  0.2216415 0.0000e+00
        175      1.126    14.0624    14.0719   2.719585   2.762970     2.9505     2.8748     0.0064  0.2222497 0.0000e+00
        176      1.139    14.0654    14.0742   2.725675   2.766127     2.9514     2.8757     0.0068  0.2228208 0.0000e+00
        177      1.151    14.0682    14.0764   2.731270   2.769022     2.9523     2.8766     0.0066  0.2233587 0.0000e+00
        178      1.164    14.0708    14.0784   2.736411   2.771676     2.9533     2.8776     0.0064  0.2238645 0.0000e+00
        179      1.176    14.0732    14.0802   2.741133   2.774109     2.9543     2.8786     0.0064  0.2243352 0.0000e+00
        180      1.188    14.0753    14.0819   2.745472   2.776337     2.9554     2.8796     0.0064  0.2247678 0.0000e+00
        181      1.201    14.0773    14.0835   2.749456   2.778379     2.9565     2.8806     0.0064  0.2251639 0.0000e+00
        182      1.213    14.0791    14.0849   2.753115   2.780247     2.9576     2.8816     0.0064  0.2255261 0.0000e+00
        183      1.225    14.0808    14.0862   2.756474   2.781957     2.9588     2.8827     0.0064  0.2258569 0.0000e+00
        184      1.237    14.0824    14.0875   2.759557   2.783520     2.9600     2.8838     0.0064  0.2261586 0.0000e+00
        185      1.249    14.0839    14.0886   2.762388   2.784949     2.9612     2.8848     0.0064  0.2264335 0.0000e+00
        186      1.261    14.0852    14.0897   2.764985   2.786254     2.9625     2.8860     0.0064  0.2266832 0.0000e+00
        187      1.273    14.0865    14.0907   2.767368   2.787445     2.9638     2.8871     0.0064  0.2269097 0.0000e+00
        188      1.285    14.0877    14.0916   2.769553   2.788532     2.9652     2.8882     0.0064  0.2271145 0.0000e+00
        189      1.297    14.0888    14.0925   2.771557   2.789522     2.9665     2.8893     0.0064  0.2272989 0.0000e+00
        190      1.309    14.0898    14.0933   2.773394   2.790423     2.9680     2.8905     0.0064  0.2274643 0.0000e+00
        191      1.321    14.0908    14.0940   2.775079   2.791242     2.9694     2.8916     0.0064  0.2276119 0.0000e+00
        192      1.333    14.0917    14.0947   2.776623   2.791985     2.9709     2.8928     0.0064  0.2277426 0.0000e+00
        193      1.345    14.0926    14.0954   2.778039   2.792659     2.9724     2.8939     0.0064  0.2278574 0.0000e+00
        194      1.357    14.0934    14.0960   2.779334   2.793270     2.9740     2.8950     0.0064  0.2279570 0.0000e+00
        195      1.369    14.0941    14.0965   2.780520   2.793821     2.9755     2.8961     0.0064  0.2280422 0.0000e+00
        196      1.381    14.0948    14.0971   2.781604   2.794319     2.9772     2.8972     0.0064  0.2281136 0.0000e+00
        197      1.392    14.0955    14.0976   2.782595   2.794768     2.9788     2.8983     0.0064  0.2281716 0.0000e+00
        198      1.404    14.0961    14.0980   2.783501   2.795170     2.9805     2.8993     0.0064  0.2282166 0.0000e+00
        199      1.416    14.0967    14.0984   2.784327   2.795531     2.9822     2.9003     0.0064  0.2282490 0.0000e+00
        200      1.427    14.0973    14.0988   2.785081   2.795853     2.9839     2.9012     0.0064  0.2282691 0.0000e+00
        201      1.439    14.0978    14.0992   2.785768   2.796140     2.9857     2.9021     0.0064  0.2282768 0.0000e+00
        202      1.450    14.0983    14.0995   2.786393   2.796393     2.9875     2.9029     0.0064  0.2282723 0.0000e+00
        203      1.461    14.0987    14.0998   2.786961   2.796616     2.9893     2.9037     0.0064  0.2282573 0.0000e+00
        204      1.472    14.0992    14.1001   2.787477   2.796812     2.9911     2.9043     0.0064  0.2282367 0.0000e+00
        205      1.483    14.0996    14.1004   2.787945   2.796981     2.9930     2.9049     0.0064  0.2282163 0.0000e+00
        206      1.494    14.1000    14.1006   2.788367   2.797125     2.9949     2.9054     0.0064  0.2281995 0.0000e+00
        207      1.504    14.1004    14.1008   2.788748   2.797247     2.9968     2.9058     0.0064  0.2281869 0.0000e+00
        208      1.515    14.1007    14.1010   2.789090   2.797347     2.9987     2.9061     0.0064  0.2281784 0.0000e+00
        209      1.525    14.1010    14.1012   2.789398   2.797428     3.0007     2.9063     0.0064  0.2281740 0.0000e+00
        210      1.535    14.1013    14.1014   2.789673   2.797491     3.0026     2.9063     0.0064  0.2281737 0.0000e+00
        211      1.544    14.1016    14.1015   2.789919   2.797536     3.0046     2.9063     0.0064  0.2281775 0.0000e+00
        212      1.553    14.1018    14.1016   2.790138   2.797566     3.0066     2.9060     0.0064  0.2281853 0.0000e+00
        213      1.562    14.1021    14.1017   2.790331   2.797579     3.0086     2.9057     0.0064  0.2281972 0.0000e+00
        214      1.571    14.1023    14.1018   2.790503   2.797578     3.0107     2.9052     0.0064  0.2282134 0.0000e+00
        215      1.580    14.1025    14.1019   2.790653   2.797564     3.0127     2.9045     0.0064  0.2282339 0.0000e+00
        216      1.588    14.1027    14.1019   2.790782   2.797537     3.0148     2.9037     0.0064  0.2282588 0.0000e+00
        217      1.595    14.1029    14.1019   2.790893   2.797497     3.0169     2.9027     0.0064  0.2282884 0.0000e+00
        218      1.603    14.1031    14.1019   2.790987   2.797445     3.0190     2.9015     0.0064  0.2283229 0.0000e+00
        219      1.610    14.1032    14.1019   2.791065   2.797380     3.0211     2.9002     0.0064  0.2283624 0.0000e+00
        220      1.617    14.1034    14.1018   2.791129   2.797303     3.0232     2.8987     0.0064  0.2284074 0.0000e+00
        221      1.624    14.1036    14.1018   2.791179   2.797215     3.0254     2.8971     0.0064  0.2284580 0.0000e+00
        222      1.630    14.1037    14.1017   2.791217   2.797116     3.0275     2.8952     0.0064  0.2285146 0.0000e+00
        223      1.636    14.1039    14.1015   2.791245   2.797006     3.0297     2.8933     0.0064  0.2285776 0.0000e+00
        224      1.641    14.1041    14.1014   2.791262   2.796885     3.0319     2.8911     0.0064  0.2286476 0.0000e+00
        225      1.647    14.1042    14.1012   2.791269   2.796753     3.0341     2.8888     0.0064  0.2287248 0.0000e+00
        226      1.652    14.1043    14.1009   2.791268   2.796612     3.0362     2.8863     0.0064  0.2288100 0.0000e+00
        227      1.656    14.1044    14.1007   2.791259   2.796465     3.0384     2.8837     0.0064  0.2289036 0.0000e+00
        228      1.661    14.1045    14.1004   2.791244   2.796314     3.0407     2.8809     0.0064  0.2290064 0.0000e+00
        229      1.665    14.1045    14.1000   2.791223   2.796161     3.0429     2.8780     0.0064  0.2291164 0.0000e+00
        230      1.669    14.1045    14.0997   2.791198   2.796009     3.0451     2.8750     0.0066  0.2292269 0.0000e+00
        231      1.672    14.1045    14.0992   2.791169   2.795858     3.0473     2.8718     0.0066  0.2293310 0.0000e+00
        232      1.676    14.1044    14.0988   2.791136   2.795708     3.0495     2.8685     0.0066  0.2294267 0.0000e+00
        233      1.678    14.1042    14.0983   2.791101   2.795559     3.0518     2.8651     0.0068  0.2295148 0.0000e+00
        234      1.680    14.1040    14.0977   2.791064   2.795409     3.0540     2.8616     0.0066  0.2295959 0.0000e+00
        235      1.682    14.1038    14.0971   2.791023   2.795259     3.0562     2.8579     0.0066  0.2296706 0.0000e+00
        236      1.684    14.1035    14.0965   2.790979   2.795109     3.0584     2.8542     0.0066  0.2297394 0.0000e+00
        237      1.686    14.1031    14.0958   2.790933   2.794960     3.0607     2.8504     0.0064  0.2298027 0.0000e+00
        238      1.688    14.1027    14.0950   2.790883   2.794811     3.0629     2.8464     0.0068  0.2298611 0.0000e+00
        239      1.690    14.1022    14.0942   2.790831   2.794663     3.0651     2.8424     0.0064  0.2299148 0.0000e+00
        240      1.692    14.1018    14.0933   2.790777   2.794517     3.0673     2.8384     0.0068  0.2299652 0.0000e+00
        241      1.693    14.1013    14.0923   2.790722   2.794372     3.0695     2.8342     0.0066  0.2300134 0.0000e+00
        242      1.694    14.1007    14.0912   2.790665   2.794230     3.0717     2.8300     0.0066  0.2300589 0.0000e+00
        243      1.695    14.1002    14.0901   2.790607   2.794089     3.0739     2.8258     0.0066  0.2301012 0.0000e+00
        244      1.696    14.0996    14.0889   2.790547   2.793949     3.0761     2.8214     0.0066  0.2301405 0.0000e+00
        245      1.697    14.0990    14.0876   2.790487   2.793812     3.0782     2.8171     0.0066  0.2301773 0.0000e+00
        246      1.697    14.0984    14.0863   2.790427   2.793676     3.0804     2.8127     0.0066  0.2302116 0.0000e+00
        247      1.698    14.0979    14.0849   2.790366   2.793544     3.0825     2.8082     0.0068  0.2302438 0.0000e+00
        248      1.699    14.0973    14.0834   2.790304   2.793414     3.0846     2.8038     0.0066  0.2302740 0.0000e+00
        249      1.699    14.0968    14.0819   2.790244   2.793288     3.0867     2.7993     0.0066  0.2303025 0.0000e+00
        250      1.699    14.0963    14.0803   2.790184   2.793165     3.0887     2.7948     0.0066  0.2303295 0.0000e+00
        251      1.699    14.0959    14.0787   2.790125   2.793046     3.0908     2.7902     0.0066  0.2303552 0.0000e+00
        252      1.700    14.0955    14.0770   2.790068   2.792931     3.0928     2.7857     0.0066  0.2303797 0.0000e+00
        253      1.699    14.0951    14.0753   2.790011   2.792819     3.0948     2.7812     0.0066  0.2304032 0.0000e+00
        254      1.699    14.0948    14.0735   2.789956   2.792709     3.0968     2.7766     0.0064  0.2304259 0.0000e+00
        255      1.699    14.0945    14.0717   2.789902   2.792602     3.0987     2.7721     0.0060  0.2304471 0.0000e+00
        256      1.699    14.0942    14.0699   2.789849   2.792497     3.1007     2.7675     0.0060  0.2304643 0.0000e+00
        257      1.699    14.0939    14.0681   2.789798   2.792393     3.1026     2.7630     0.0060  0.2304753 0.0000e+00
        258      1.698    14.0937    14.0662   2.789749   2.792290     3.1044     2.7585     0.0060  0.2304791 0.0000e+00
        259      1.698    14.0935    14.0643   2.789701   2.792187     3.1063     2.7540     0.0060  0.2304758 0.0000e+00
        260      1.697    14.0933    14.0624   2.789656   2.792085     3.1081     2.7495     0.0060  0.2304654 0.0000e+00
        261      1.696    14.0931    14.0604   2.789612   2.791983     3.1098     2.7450     0.0060  0.2304478 0.0000e+00
        262      1.695    14.0930    14.0584   2.789569   2.791883     3.1116     2.7406     0.0060  0.2304229 0.0000e+00
        263      1.695    14.0929    14.0564   2.789528   2.791783     3.1133     2.7362     0.0060  0.2303906 0.0000e+00
        264      1.694    14.0928    14.0545   2.789488   2.791684     3.1149     2.7319     0.0060  0.2303505 0.0000e+00
        265      1.693    14.0927    14.0525   2.789450   2.791585     3.1166     2.7275     0.0060  0.2303025 0.0000e+00
        266      1.692    14.0927    14.0505   2.789411   2.791487     3.1182     2.7232     0.0060  0.2302461 0.0000e+00
        267      1.692    14.0927    14.0485   2.789373   2.791389     3.1198     2.7190     0.0060  0.2301810 0.0000e+00
        268      1.691    14.0926    14.0466   2.789336   2.791292     3.1213     2.7148     0.0060  0.2301068 0.0000e+00
        269      1.690    14.0927    14.0447   2.789301   2.791196     3.1228     2.7106     0.0060  0.2300229 0.0000e+00
        270      1.690    14.0927    14.0428   2.789266   2.791100     3.1243     2.7065     0.0060  0.2299287 0.0000e+00
        271      1.689    14.0927    14.0409   2.789232   2.791005     3.1257     2.7024     0.0060  0.2298236 0.0000e+00
        272      1.688    14.0928    14.0391   2.789198   2.790912     3.1271     2.6983     0.0060  0.2297068 0.0000e+00
        273      1.687    14.0928    14.0374   2.789163   2.790820     3.1284     2.6943     0.0060  0.2295776 0.0000e+00
        274      1.687    14.0929    14.0357   2.789129   2.790729     3.1297     2.6904     0.0060  0.2294350 0.0000e+00
        275      1.686    14.0930    14.0340   2.789095   2.790639     3.1309     2.6865     0.0060  0.2292781 0.0000e+00
        276      1.685    14.0931    14.0324   2.789061   2.790550     3.1321     2.6827     0.0060  0.2291057 0.0000e+00
        277      1.685    14.0932    14.0309   2.789026   2.790462     3.1332     2.6789     0.0060  0.2289167 0.0000e+00
        278      1.684    14.0934    14.0293   2.788992   2.790375     3.1343     2.6752     0.0060  0.2287097 0.0000e+00
        279      1.683    14.0935    14.0278   2.788959   2.790289     3.1354     2.6715     0.0060  0.2284833 0.0000e+00
        280      1.683    14.0936    14.0263   2.788925   2.790204     3.1364     2.6679     0.0059  0.2282428 0.0000e+00
        281      1.682    14.0938    14.0249   2.788891   2.790120     3.1373     2.6643     0.0057  0.2280042 0.0000e+00
        282      1.681    14.0939    14.0234   2.788857   2.790037     3.1382     2.6608     0.0057  0.2277813 0.0000e+00
        283      1.681    14.0941    14.0221   2.788823   2.789955     3.1390     2.6573     0.0057  0.2275766 0.0000e+00
        284      1.680    14.0942    14.0207   2.788789   2.789874     3.1398     2.6539     0.0057  0.2273889 0.0000e+00
        285      1.679    14.0943    14.0194   2.788754   2.789795     3.1405     2.6505     0.0057  0.2272167 0.0000e+00
        286      1.679    14.0945    14.0181   2.788720   2.789717     3.1411     2.6472     0.0057  0.2270589 0.0000e+00
        287      1.678    14.0946    14.0168   2.788685   2.789639     3.1416     2.6439     0.0057  0.2269144 0.0000e+00
        288      1.678    14.0947    14.0156   2.788651   2.789563     3.1421     2.6407     0.0057  0.2267822 0.0000e+00
        289      1.677    14.0948    14.0143   2.788617   2.789488     3.1425     2.6376     0.0057  0.2266614 0.0000e+00
        290      1.676    14.0949    14.0131   2.788585   2.789413     3.1429     2.6344     0.0057  0.2265510 0.0000e+00
        291      1.676    14.0950    14.0118   2.788553   2.789339     3.1432     2.6313     0.0057  0.2264504 0.0000e+00
        292      1.675    14.0951    14.0105   2.788521   2.789265     3.1433     2.6283     0.0057  0.2263589 0.0000e+00
        293      1.674    14.0952    14.0093   2.788490   2.789191     3.1434     2.6253     0.0057  0.2262758 0.0000e+00
        294      1.674    14.0953    14.0080   2.788460   2.789117     3.1434     2.6224     0.0057  0.2262005 0.0000e+00
        295      1.673    14.0954    14.0067   2.788431   2.789044     3.1433     2.6194     0.0057  0.2261326 0.0000e+00
        296      1.673    14.0955    14.0053   2.788403   2.788971     3.1431     2.6166     0.0057  0.2260715 0.0000e+00
        297      1.672    14.0956    14.0040   2.788375   2.788899     3.1427     2.6137     0.0057  0.2260168 0.0000e+00
        298      1.672    14.0957    14.0027   2.788349   2.788827     3.1423     2.6109     0.0057  0.2259681 0.0000e+00
        299      1.671    14.0958    14.0013   2.788323   2.788756     3.1417     2.6082     0.0057  0.2259251 0.0000e+00
        300      1.670    14.0960    13.9999   2.788298   2.788685     3.1410     2.6055     0.0057  0.2258876 0.0000e+00
        301      1.670    14.0961    13.9985   2.788275   2.788613     3.1402     2.6028     0.0057  0.2258551 0.0000e+00
        302      1.669    14.0962    13.9972   2.788253   2.788541     3.1393     2.6001     0.0057  0.2258276 0.0000e+00
        303      1.669    14.0963    13.9958   2.788231   2.788469     3.1382     2.5975     0.0057  0.2258048 0.0000e+00
        304      1.668    14.0964    13.9944   2.788209   2.788395     3.1369     2.5949     0.0057  0.2257866 0.0000e+00
        305      1.668    14.0966    13.9930   2.788186   2.788321     3.1356     2.5923     0.0059  0.2257728 0.0000e+00
        306      1.667    14.0967    13.9916   2.788163   2.788245     3.1340     2.5897     0.0062  0.2257651 0.0000e+00
        307      1.667    14.0968    13.9903   2.788138   2.788170     3.1323     2.5872     0.0064  0.2257667 0.0000e+00
        308      1.666    14.0970    13.9889   2.788112   2.788093     3.1305     2.5847     0.0064  0.2257794 0.0000e+00
        309      1.666    14.0971    13.9876   2.788086   2.788015     3.1285     2.5822     0.0064  0.2258033 0.0000e+00
        310      1.665    14.0972    13.9863   2.788058   2.787937     3.1263     2.5798     0.0062  0.2258385 0.0000e+00
        311      1.665    14.0974    13.9850   2.788030   2.787856     3.1240     2.5774     0.0064  0.2258854 0.0000e+00
        312      1.665    14.0975    13.9838   2.788003   2.787775     3.1216     2.5749     0.0064  0.2259441 0.0000e+00
        313      1.665    14.0976    13.9826   2.787976   2.787692     3.1189     2.5726     0.0064  0.2260152 0.0000e+00
        314      1.664    14.0978    13.9814   2.787949   2.787607     3.1162     2.5702     0.0064  0.2260991 0.0000e+00
        315      1.664    14.0979    13.9803   2.787923   2.787521     3.1132     2.5678     0.0064  0.2261964 0.0000e+00
        316      1.664    14.0980    13.9792   2.787898   2.787434     3.1102     2.5655     0.0064  0.2263078 0.0000e+00
        317      1.664    14.0981    13.9781   2.787873   2.787345     3.1069     2.5632     0.0064  0.2264340 0.0000e+00
        318      1.664    14.0983    13.9772   2.787848   2.787255     3.1036     2.5608     0.0064  0.2265760 0.0000e+00
        319      1.664    14.0984    13.9762   2.787824   2.787164     3.1001     2.5586     0.0064  0.2267347 0.0000e+00
        320      1.664    14.0985    13.9754   2.787800   2.787071     3.0965     2.5563     0.0064  0.2269112 0.0000e+00
        321      1.664    14.0986    13.9745   2.787777   2.786978     3.0928     2.5540     0.0064  0.2271068 0.0000e+00
        322      1.663    14.0987    13.9738   2.787753   2.786886     3.0890     2.5518     0.0064  0.2273228 0.0000e+00
        323      1.663    14.0989    13.9731   2.787728   2.786793     3.0850     2.5495     0.0064  0.2275607 0.0000e+00
        324      1.663    14.0990    13.9725   2.787703   2.786700     3.0810     2.5473     0.0064  0.2278222 0.0000e+00
        325      1.663    14.0991    13.9719   2.787676   2.786609     3.0768     2.5451     0.0064  0.2281091 0.0000e+00
        326      1.662    14.0992    13.9715   2.787647   2.786517     3.0726     2.5429     0.0064  0.2284233 0.0000e+00
        327      1.662    14.0993    13.9711   2.787617   2.786427     3.0683     2.5407     0.0064  0.2287672 0.0000e+00
        328      1.662    14.0995    13.9707   2.787585   2.786338     3.0639     2.5385     0.0064  0.2291430 0.0000e+00
        329      1.662    14.0996    13.9705   2.787551   2.786250     3.0594     2.5363     0.0064  0.2295534 0.0000e+00
        330      1.661    14.0997    13.9703   2.787515   2.786163     3.0548     2.5341     0.0064  0.2300012 0.0000e+00
        331      1.661    14.0999    13.9701   2.787478   2.786078     3.0502     2.5319     0.0060  0.2304768 0.0000e+00
        332      1.661    14.1000    13.9701   2.787438   2.785995     3.0455     2.5298     0.0057  0.2309487 0.0000e+00
        333      1.660    14.1002    13.9701   2.787395   2.785913     3.0408     2.5276     0.0057  0.2313871 0.0000e+00
        334      1.660    14.1004    13.9702   2.787352   2.785834     3.0360     2.5255     0.0057  0.2317830 0.0000e+00
        335      1.659    14.1005    13.9703   2.787306   2.785756     3.0312     2.5233     0.0057  0.2321394 0.0000e+00
        336      1.659    14.1006    13.9705   2.787258   2.785680     3.0263     2.5212     0.0057  0.2324602 0.0000e+00
        337      1.659    14.1008    13.9708   2.787209   2.785605     3.0214     2.5190     0.0057  0.2327487 0.0000e+00
        338      1.659    14.1009    13.9710   2.787157   2.785531     3.0165     2.5169     0.0057  0.2330060 0.0000e+00
        339      1.659    14.1010    13.9713   2.787104   2.785458     3.0115     2.5147     0.0057  0.2332330 0.0000e+00
        340      1.659    14.1010    13.9715   2.787050   2.785387     3.0065     2.5126     0.0057  0.2334313 0.0000e+00
        341      1.659    14.1011    13.9717   2.786994   2.785317     3.0016     2.5105     0.0057  0.2336022 0.0000e+00
        342      1.659    14.1012    13.9719   2.786938   2.785248     2.9966     2.5084     0.0057  0.2337470 0.0000e+00
        343      1.658    14.1012    13.9721   2.786880   2.785180     2.9915     2.5062     0.0057  0.2338667 0.0000e+00
        344      1.658    14.1013    13.9723   2.786822   2.785114     2.9865     2.5041     0.0057  0.2339621 0.0000e+00
        345      1.658    14.1013    13.9725   2.786763   2.785049     2.9815     2.5020     0.0057  0.2340348 0.0000e+00
        346      1.658    14.1013    13.9726   2.786704   2.784986     2.9765     2.4999     0.0057  0.2340860 0.0000e+00
        347      1.658    14.1013    13.9728   2.786644   2.784924     2.9715     2.4978     0.0057  0.2341152 0.0000e+00
        348      1.659    14.1013    13.9731   2.786584   2.784864     2.9665     2.4957     0.0057  0.2341219 0.0000e+00
        349      1.659    14.1014    13.9733   2.786523   2.784805     2.9616     2.4936     0.0057  0.2341061 0.0000e+00
        350      1.659    14.1014    13.9737   2.786462   2.784748     2.9566     2.4915     0.0057  0.2340677 0.0000e+00
        351      1.659    14.1014    13.9741   2.786400   2.784693     2.9516     2.4894     0.0057  0.2340064 0.0000e+00
        352      1.660    14.1013    13.9745   2.786339   2.784640     2.9467     2.4873     0.0057  0.2339217 0.0000e+00
        353      1.660    14.1013    13.9751   2.786277   2.784589     2.9418     2.4853     0.0057  0.2338131 0.0000e+00
        354      1.661    14.1013    13.9757   2.786216   2.784539     2.9369     2.4832     0.0057  0.2336799 0.0000e+00
        355      1.661    14.1013    13.9764   2.786156   2.784492     2.9321     2.4811     0.0057  0.2335219 0.0000e+00
        356      1.662    14.1013    13.9773   2.786096   2.784446     2.9272     2.4790     0.0057  0.2333415 0.0000e+00
        357      1.662    14.1013    13.9782   2.786037   2.784402     2.9224     2.4770     0.0059  0.2331467 0.0000e+00
        358      1.663    14.1012    13.9793   2.785977   2.784361     2.9176     2.4749     0.0059  0.2329515 0.0000e+00
        359      1.664    14.1012    13.9805   2.785918   2.784321     2.9128     2.4729     0.0059  0.2327664 0.0000e+00
        360      1.664    14.1012    13.9819   2.785860   2.784283     2.9081     2.4708     0.0059  0.2325927 0.0000e+00
        361      1.665    14.1012    13.9834   2.785801   2.784248     2.9034     2.4688     0.0059  0.2324274 0.0000e+00
        362      1.665    14.1012    13.9850   2.785742   2.784213     2.8987     2.4667     0.0059  0.2322687 0.0000e+00
        363      1.666    14.1012    13.9869   2.785682   2.784181     2.8941     2.4647     0.0059  0.2321152 0.0000e+00
        364      1.666    14.1012    13.9889   2.785620   2.784151     2.8895     2.4626     0.0059  0.2319669 0.0000e+00
        365      1.667    14.1011    13.9911   2.785558   2.784122     2.8849     2.4606     0.0059  0.2318236 0.0000e+00
        366      1.667    14.1011    13.9935   2.785495   2.784095     2.8804     2.4585     0.0059  0.2316842 0.0000e+00
        367      1.667    14.1011    13.9961   2.785431   2.784070     2.8759     2.4565     0.0059  0.2315478 0.0000e+00
        368      1.667    14.1011    13.9990   2.785365   2.784046     2.8714     2.4544     0.0059  0.2314126 0.0000e+00
        369      1.667    14.1011    14.0019   2.785298   2.784023     2.8670     2.4524     0.0059  0.2312769 0.0000e+00
        370      1.667    14.1012    14.0050   2.785229   2.784000     2.8627     2.4504     0.0059  0.2311395 0.0000e+00
        371      1.668    14.1012    14.0082   2.785158   2.783976     2.8583     2.4483     0.0059  0.2309997 0.0000e+00
        372      1.668    14.1012    14.0113   2.785086   2.783953     2.8540     2.4463     0.0059  0.2308564 0.0000e+00
        373      1.668    14.1012    14.0145   2.785011   2.783928     2.8498     2.4442     0.0059  0.2307087 0.0000e+00
        374      1.668    14.1012    14.0176   2.784934   2.783902     2.8456     2.4422     0.0059  0.2305555 0.0000e+00
        375      1.668    14.1013    14.0206   2.784854   2.783874     2.8414     2.4402     0.0059  0.2303957 0.0000e+00
        376      1.668    14.1013    14.0236   2.784772   2.783844     2.8372     2.4382     0.0059  0.2302282 0.0000e+00
        377      1.668    14.1013    14.0265   2.784688   2.783812     2.8331     2.4362     0.0059  0.2300519 0.0000e+00
        378      1.668    14.1013    14.0292   2.784601   2.783778     2.8291     2.4342     0.0059  0.2298655 0.0000e+00
        379      1.668    14.1014    14.0319   2.784511   2.783741     2.8251     2.4321     0.0059  0.2296678 0.0000e+00
        380      1.668    14.1014    14.0344   2.784419   2.783702     2.8211     2.4301     0.0059  0.2294574 0.0000e+00
        381      1.668    14.1014    14.0369   2.784324   2.783661     2.8171     2.4281     0.0059  0.2292327 0.0000e+00
        382      1.668    14.1015    14.0392   2.784227   2.783617     2.8132     2.4261     0.0059  0.2289982 0.0000e+00
        383      1.668    14.1015    14.0414   2.784128   2.783572     2.8093     2.4241     0.0060  0.2287685 0.0000e+00
        384      1.669    14.1015    14.0435   2.784027   2.783524     2.8055     2.4222     0.0060  0.2285562 0.0000e+00
        385      1.669    14.1015    14.0455   2.783925   2.783474     2.8017     2.4202     0.0060  0.2283643 0.0000e+00
        386      1.669    14.1015    14.0475   2.783821   2.783424     2.7979     2.4182     0.0060  0.2281913 0.0000e+00
        387      1.670    14.1015    14.0493   2.783717   2.783373     2.7942     2.4162     0.0060  0.2280361 0.0000e+00
        388      1.670    14.1016    14.0511   2.783613   2.783322     2.7905     2.4142     0.0060  0.2278976 0.0000e+00
        389      1.670    14.1016    14.0528   2.783508   2.783269     2.7869     2.4123     0.0060  0.2277748 0.0000e+00
        390      1.671    14.1016    14.0545   2.783404   2.783217     2.7833     2.4103     0.0060  0.2276669 0.0000e+00
        391      1.671    14.1016    14.0560   2.783300   2.783164     2.7797     2.4084     0.0060  0.2275731 0.0000e+00
        392      1.672    14.1016    14.0575   2.783198   2.783111     2.7761     2.4065     0.0060  0.2274928 0.0000e+00
        393      1.672    14.1016    14.0589   2.783097   2.783057     2.7726     2.4045     0.0060  0.2274254 0.0000e+00
        394      1.673    14.1016    14.0602   2.782998   2.783005     2.7691     2.4026     0.0060  0.2273704 0.0000e+00
        395      1.674    14.1016    14.0615   2.782902   2.782952     2.7656     2.4007     0.0060  0.2273274 0.0000e+00
        396      1.675    14.1015    14.0626   2.782807   2.782901     2.7622     2.3988     0.0060  0.2272962 0.0000e+00
        397      1.675    14.1015    14.0638   2.782715   2.782850     2.7588     2.3970     0.0060  0.2272775 0.0000e+00
        398      1.676    14.1015    14.0648   2.782626   2.782800     2.7554     2.3951     0.0060  0.2272718 0.0000e+00
        399      1.677    14.1015    14.0658   2.782538   2.782751     2.7520     2.3932     0.0060  0.2272783 0.0000e+00
        400      1.678    14.1015    14.0667   2.782453   2.782703     2.7487     2.3914     0.0060  0.2272963 0.0000e+00
        401      1.678    14.1015    14.0676   2.782370   2.782656     2.7453     2.3895     0.0060  0.2273258 0.0000e+00
        402      1.679    14.1014    14.0684   2.782289   2.782610     2.7420     2.3877     0.0060  0.2273670 0.0000e+00
        403      1.679    14.1014    14.0691   2.782210   2.782565     2.7387     2.3859     0.0060  0.2274203 0.0000e+00
        404      1.680    14.1014    14.0699   2.782134   2.782521     2.7355     2.3841     0.0060  0.2274860 0.0000e+00
        405      1.680    14.1014    14.0705   2.782061   2.782478     2.7322     2.3823     0.0060  0.2275645 0.0000e+00
        406      1.680    14.1014    14.0712   2.781991   2.782437     2.7290     2.3805     0.0060  0.2276565 0.0000e+00
        407      1.681    14.1013    14.0718   2.781923   2.782397     2.7258     2.3787     0.0059  0.2277616 0.0000e+00
        408      1.681    14.1013    14.0724   2.781857   2.782359     2.7227     2.3769     0.0057  0.2278756 0.0000e+00
        409      1.681    14.1013    14.0730   2.781794   2.782323     2.7195     2.3752     0.0055  0.2279907 0.0000e+00
        410      1.681    14.1013    14.0735   2.781732   2.782287     2.7164     2.3734     0.0053  0.2281026 0.0000e+00
        411      1.682    14.1012    14.0740   2.781672   2.782253     2.7132     2.3717     0.0055  0.2282104 0.0000e+00
        412      1.682    14.1012    14.0745   2.781615   2.782220     2.7101     2.3700     0.0055  0.2283133 0.0000e+00
        413      1.682    14.1012    14.0750   2.781559   2.782188     2.7070     2.3683     0.0055  0.2284118 0.0000e+00
        414      1.682    14.1011    14.0754   2.781504   2.782157     2.7040     2.3666     0.0055  0.2285075 0.0000e+00
        415      1.682    14.1011    14.0759   2.781451   2.782127     2.7009     2.3649     0.0055  0.2286002 0.0000e+00
        416      1.682    14.1011    14.0763   2.781398   2.782098     2.6979     2.3632     0.0055  0.2286898 0.0000e+00
        417      1.682    14.1010    14.0767   2.781345   2.782069     2.6948     2.3616     0.0055  0.2287768 0.0000e+00
        418      1.682    14.1010    14.0771   2.781292   2.782041     2.6918     2.3599     0.0055  0.2288627 0.0000e+00
        419      1.682    14.1009    14.0775   2.781239   2.782014     2.6888     2.3583     0.0055  0.2289490 0.0000e+00
        420      1.682    14.1009    14.0779   2.781185   2.781986     2.6859     2.3566     0.0055  0.2290362 0.0000e+00
        421      1.683    14.1009    14.0783   2.781131   2.781957     2.6829     2.3550     0.0055  0.2291259 0.0000e+00
        422      1.683    14.1008    14.0787   2.781076   2.781928     2.6799     2.3534     0.0055  0.2292186 0.0000e+00
        423      1.683    14.1008    14.0790   2.781021   2.781898     2.6770     2.3518     0.0055  0.2293141 0.0000e+00
        424      1.683    14.1008    14.0793   2.780964   2.781867     2.6741     2.3502     0.0055  0.2294131 0.0000e+00
        425      1.684    14.1008    14.0797   2.780907   2.781835     2.6712     2.3486     0.0055  0.2295162 0.0000e+00
        426      1.684    14.1008    14.0800   2.780848   2.781800     2.6683     2.3470     0.0055  0.2296243 0.0000e+00
        427      1.684    14.1008    14.0802   2.780788   2.781765     2.6655     2.3455     0.0053  0.2297372 0.0000e+00
        428      1.684    14.1009    14.0805   2.780726   2.781727     2.6626     2.3439     0.0055  0.2298548 0.0000e+00
        429      1.685    14.1009    14.0808   2.780663   2.781688     2.6598     2.3424     0.0055  0.2299788 0.0000e+00
        430      1.685    14.1009    14.0810   2.780599   2.781648     2.6570     2.3408     0.0055  0.2301110 0.0000e+00
        431      1.685    14.1010    14.0812   2.780533   2.781606     2.6542     2.3393     0.0055  0.2302513 0.0000e+00
        432      1.685    14.1010    14.0814   2.780465   2.781563     2.6514     2.3378     0.0055  0.2304000 0.0000e+00
        433      1.685    14.1010    14.0817   2.780396   2.781518     2.6487     2.3363     0.0057  0.2305545 0.0000e+00
        434      1.685    14.1010    14.0819   2.780326   2.781471     2.6460     2.3348     0.0059  0.2307051 0.0000e+00
        435      1.686    14.1010    14.0821   2.780255   2.781424     2.6432     2.3333     0.0059  0.2308400 0.0000e+00
        436      1.686    14.1010    14.0823   2.780182   2.781376     2.6405     2.3318     0.0059  0.2309541 0.0000e+00
        437      1.686    14.1010    14.0826   2.780110   2.781327     2.6379     2.3303     0.0059  0.2310475 0.0000e+00
        438      1.686    14.1010    14.0828   2.780037   2.781279     2.6352     2.3288     0.0059  0.2311208 0.0000e+00
        439      1.686    14.1009    14.0831   2.779965   2.781230     2.6326     2.3274     0.0059  0.2311744 0.0000e+00
        440      1.686    14.1009    14.0833   2.779893   2.781183     2.6299     2.3259     0.0059  0.2312088 0.0000e+00
        441      1.686    14.1009    14.0836   2.779822   2.781136     2.6273     2.3245     0.0059  0.2312242 0.0000e+00
        442      1.686    14.1008    14.0839   2.779753   2.781089     2.6248     2.3230     0.0059  0.2312207 0.0000e+00
        443      1.686    14.1008    14.0842   2.779685   2.781044     2.6222     2.3216     0.0059  0.2311983 0.0000e+00
        444      1.686    14.1007    14.0844   2.779618   2.781000     2.6196     2.3201     0.0059  0.2311568 0.0000e+00
        445      1.686    14.1007    14.0847   2.779553   2.780957     2.6171     2.3187     0.0059  0.2310968 0.0000e+00
        446      1.685    14.1007    14.0850   2.779489   2.780916     2.6146     2.3173     0.0059  0.2310187 0.0000e+00
        447      1.685    14.1006    14.0854   2.779427   2.780875     2.6121     2.3159     0.0059  0.2309212 0.0000e+00
        448      1.685    14.1006    14.0857   2.779367   2.780836     2.6096     2.3145     0.0057  0.2308026 0.0000e+00
        449      1.685    14.1005    14.0860   2.779307   2.780797     2.6071     2.3131     0.0059  0.2306622 0.0000e+00
        450      1.685    14.1005    14.0863   2.779250   2.780759     2.6047     2.3117     0.0059  0.2304990 0.0000e+00
        451      1.685    14.1004    14.0865   2.779193   2.780723     2.6023     2.3103     0.0059  0.2303119 0.0000e+00
        452      1.684    14.1004    14.0868   2.779137   2.780687     2.5999     2.3089     0.0059  0.2300995 0.0000e+00
        453      1.684    14.1003    14.0871   2.779082   2.780652     2.5975     2.3075     0.0059  0.2298604 0.0000e+00
        454      1.684    14.1003    14.0874   2.779028   2.780618     2.5951     2.3061     0.0059  0.2295930 0.0000e+00
        455      1.684    14.1002    14.0876   2.778974   2.780585     2.5928     2.3047     0.0059  0.2292961 0.0000e+00
        456      1.683    14.1002    14.0879   2.778920   2.780551     2.5905     2.3033     0.0059  0.2289687 0.0000e+00
        457      1.683    14.1002    14.0881   2.778866   2.780518     2.5881     2.3020     0.0059  0.2286074 0.0000e+00
        458      1.683    14.1002    14.0884   2.778813   2.780485     2.5858     2.3006     0.0059  0.2282125 0.0000e+00
        459      1.682    14.1001    14.0886   2.778760   2.780451     2.5835     2.2992     0.0060  0.2277999 0.0000e+00
        460      1.682    14.1001    14.0889   2.778706   2.780418     2.5813     2.2979     0.0060  0.2273989 0.0000e+00
        461      1.681    14.1001    14.0891   2.778653   2.780384     2.5790     2.2965     0.0060  0.2270288 0.0000e+00
        462      1.681    14.1001    14.0893   2.778600   2.780350     2.5768     2.2952     0.0060  0.2266913 0.0000e+00
        463      1.681    14.1000    14.0895   2.778547   2.780316     2.5746     2.2938     0.0060  0.2263824 0.0000e+00
        464      1.680    14.1000    14.0897   2.778493   2.780281     2.5724     2.2925     0.0060  0.2260991 0.0000e+00
        465      1.680    14.1000    14.0899   2.778439   2.780245     2.5702     2.2911     0.0060  0.2258394 0.0000e+00
        466      1.680    14.1000    14.0900   2.778385   2.780209     2.5680     2.2898     0.0060  0.2256014 0.0000e+00
        467      1.679    14.1000    14.0902   2.778331   2.780173     2.5658     2.2885     0.0060  0.2253836 0.0000e+00
        468      1.679    14.1000    14.0904   2.778277   2.780136     2.5637     2.2871     0.0060  0.2251844 0.0000e+00
        469      1.679    14.1000    14.0905   2.778222   2.780100     2.5615     2.2858     0.0060  0.2250025 0.0000e+00
        470      1.678    14.1000    14.0907   2.778168   2.780063     2.5594     2.2845     0.0060  0.2248365 0.0000e+00
        471      1.678    14.1000    14.0908   2.778113   2.780025     2.5573     2.2832     0.0060  0.2246853 0.0000e+00
        472      1.678    14.0999    14.0909   2.778058   2.779988     2.5552     2.2818     0.0060  0.2245479 0.0000e+00
        473      1.677    14.0999    14.0910   2.778003   2.779950     2.5531     2.2805     0.0060  0.2244233 0.0000e+00
        474      1.677    14.0999    14.0911   2.777949   2.779913     2.5510     2.2792     0.0060  0.2243106 0.0000e+00
        475      1.677    14.0999    14.0912   2.777894   2.779876     2.5490     2.2779     0.0060  0.2242091 0.0000e+00
        476      1.676    14.0999    14.0913   2.777839   2.779838     2.5469     2.2766     0.0060  0.2241181 0.0000e+00
        477      1.676    14.0999    14.0914   2.777785   2.779801     2.5449     2.2753     0.0060  0.2240368 0.0000e+00
        478      1.675    14.0999    14.0915   2.777732   2.779765     2.5428     2.2740     0.0060  0.2239649 0.0000e+00
        479      1.675    14.0998    14.0915   2.777678   2.779729     2.5408     2.2727     0.0060  0.2239016 0.0000e+00
        480      1.675    14.0998    14.0916   2.777625   2.779693     2.5388     2.2714     0.0060  0.2238467 0.0000e+00
        481      1.675    14.0998    14.0917   2.777573   2.779658     2.5368     2.2701     0.0060  0.2237997 0.0000e+00
        482      1.674    14.0998    14.0917   2.777521   2.779624     2.5348     2.2689     0.0060  0.2237603 0.0000e+00
        483      1.674    14.0997    14.0918   2.777471   2.779591     2.5329     2.2676     0.0060  0.2237282 0.0000e+00
        484      1.674    14.0997    14.0919   2.777421   2.779558     2.5309     2.2663     0.0060  0.2237024 0.0000e+00
        485      1.674    14.0997    14.0919   2.777372   2.779526     2.5289     2.2650     0.0060  0.2236793 0.0000e+00
        486      1.673    14.0996    14.0920   2.777323   2.779494     2.5270     2.2638     0.0060  0.2236544 0.0000e+00
        487      1.673    14.0996    14.0920   2.777276   2.779463     2.5251     2.2625     0.0060  0.2236259 0.0000e+00
        488      1.673    14.0996    14.0921   2.777229   2.779433     2.5232     2.2612     0.0060  0.2235936 0.0000e+00
        489      1.672    14.0995    14.0921   2.777183   2.779403     2.5213     2.2600     0.0060  0.2235573 0.0000e+00
        490      1.672    14.0995    14.0922   2.777139   2.779374     2.5194     2.2587     0.0060  0.2235168 0.0000e+00
        491      1.672    14.0994    14.0922   2.777094   2.779346     2.5175     2.2575     0.0060  0.2234716 0.0000e+00
        492      1.671    14.0994    14.0923   2.777051   2.779319     2.5156     2.2563     0.0060  0.2234216 0.0000e+00
        493      1.671    14.0993    14.0924   2.777008   2.779293     2.5137     2.2550     0.0060  0.2233664 0.0000e+00
        494      1.671    14.0993    14.0925   2.776966   2.779268     2.5119     2.2538     0.0059  0.2233056 0.0000e+00
        495      1.670    14.0992    14.0925   2.776925   2.779243     2.5100     2.2526     0.0060  0.2232387 0.0000e+00
        496      1.670    14.0991    14.0926   2.776885   2.779219     2.5082     2.2514     0.0060  0.2231653 0.0000e+00
        497      1.670    14.0991    14.0927   2.776845   2.779196     2.5063     2.2501     0.0060  0.2230850 0.0000e+00
        498      1.669    14.0990    14.0928   2.776806   2.779174     2.5045     2.2489     0.0060  0.2229970 0.0000e+00
        499      1.669    14.0989    14.0929   2.776768   2.779153     2.5027     2.2478     0.0060  0.2229009 0.0000e+00
        500      1.669    14.0988    14.0930   2.776731   2.779132     2.5009     2.2466     0.0060  0.2227960 0.0000e+00
        501      1.668    14.0987    14.0932   2.776694   2.779112     2.4991     2.2454     0.0060  0.2226815 0.0000e+00
        502      1.668    14.0986    14.0933   2.776657   2.779093     2.4973     2.2442     0.0060  0.2225566 0.0000e+00
        503      1.668    14.0985    14.0934   2.776621   2.779074     2.4955     2.2430     0.0060  0.2224205 0.0000e+00
        504      1.667    14.0983    14.0935   2.776584   2.779056     2.4937     2.2418     0.0060  0.2222722 0.0000e+00
        505      1.667    14.0982    14.0937   2.776547   2.779039     2.4919     2.2406     0.0060  0.2221106 0.0000e+00
        506      1.667    14.0981    14.0938   2.776509   2.779022     2.4902     2.2395     0.0060  0.2219348 0.0000e+00
        507      1.667    14.0979    14.0939   2.776472   2.779006     2.4884     2.2383     0.0060  0.2217433 0.0000e+00
        508      1.667    14.0978    14.0940   2.776435   2.778991     2.4867     2.2371     0.0060  0.2215350 0.0000e+00
        509      1.667    14.0976    14.0941   2.776398   2.778976     2.4850     2.2359     0.0060  0.2213100 0.0000e+00
        510      1.668    14.0975    14.0943   2.776362   2.778963     2.4833     2.2348     0.0057  0.2210779 0.0000e+00
        511      1.668    14.0973    14.0944   2.776327   2.778950     2.4815     2.2336     0.0059  0.2208573 0.0000e+00
        512      1.668    14.0972    14.0945   2.776292   2.778939     2.4798     2.2325     0.0059  0.2206604 0.0000e+00
        513      1.669    14.0971    14.0946   2.776258   2.778930     2.4782     2.2313     0.0059  0.2204875 0.0000e+00
        514      1.669    14.0970    14.0947   2.776225   2.778922     2.4765     2.2302     0.0059  0.2203374 0.0000e+00
        515      1.670    14.0969    14.0948   2.776194   2.778916     2.4748     2.2290     0.0059  0.2202107 0.0000e+00
        516      1.671    14.0968    14.0949   2.776164   2.778913     2.4732     2.2279     0.0059  0.2201074 0.0000e+00
        517      1.673    14.0967    14.0949   2.776135   2.778912     2.4715     2.2267     0.0059  0.2200268 0.0000e+00
        518      1.674    14.0967    14.0950   2.776109   2.778913     2.4698     2.2256     0.0059  0.2199683 0.0000e+00
        519      1.676    14.0966    14.0951   2.776084   2.778918     2.4682     2.2245     0.0059  0.2199316 0.0000e+00
        520      1.677    14.0966    14.0952   2.776063   2.778925     2.4666     2.2234     0.0059  0.2199163 0.0000e+00
        521      1.679    14.0965    14.0953   2.776044   2.778935     2.4650     2.2223     0.0059  0.2199215 0.0000e+00
        522      1.682    14.0965    14.0954   2.776028   2.778947     2.4633     2.2212     0.0059  0.2199464 0.0000e+00
        523      1.684    14.0965    14.0954   2.776015   2.778964     2.4617     2.2201     0.0059  0.2199920 0.0000e+00
        524      1.687    14.0964    14.0955   2.776006   2.778984     2.4601     2.2190     0.0059  0.2200587 0.0000e+00
        525      1.690    14.0964    14.0956   2.776000   2.779008     2.4585     2.2179     0.0059  0.2201452 0.0000e+00
        526      1.693    14.0963    14.0956   2.775998   2.779036     2.4569     2.2168     0.0059  0.2202512 0.0000e+00
        527      1.697    14.0963    14.0957   2.776001   2.779068     2.4553     2.2157     0.0059  0.2203783 0.0000e+00
        528      1.701    14.0963    14.0958   2.776009   2.779105     2.4538     2.2147     0.0059  0.2205292 0.0000e+00
        529      1.705    14.0962    14.0958   2.776021   2.779146     2.4522     2.2136     0.0059  0.2207049 0.0000e+00
        530      1.710    14.0961    14.0959   2.776038   2.779192     2.4506     2.2126     0.0059  0.2209048 0.0000e+00
        531      1.715    14.0961    14.0959   2.776062   2.779244     2.4491     2.2115     0.0059  0.2211296 0.0000e+00
        532      1.721    14.0960    14.0960   2.776091   2.779301     2.4475     2.2105     0.0059  0.2213808 0.0000e+00
        533      1.728    14.0959    14.0960   2.776126   2.779365     2.4460     2.2095     0.0059  0.2216609 0.0000e+00
        534      1.734    14.0958    14.0961   2.776167   2.779435     2.4444     2.2084     0.0059  0.2219738 0.0000e+00
        535      1.742    14.0956    14.0962   2.776216   2.779512     2.4429     2.2074     0.0057  0.2223138 0.0000e+00
        536      1.750    14.0955    14.0963   2.776272   2.779597     2.4414     2.2064     0.0057  0.2226587 0.0000e+00
        537      1.759    14.0953    14.0963   2.776336   2.779691     2.4399     2.2054     0.0057  0.2229854 0.0000e+00
        538      1.768    14.0951    14.0965   2.776407   2.779796     2.4384     2.2045     0.0057  0.2232860 0.0000e+00
        539      1.778    14.0949    14.0966   2.776485   2.779911     2.4369     2.2035     0.0057  0.2235627 0.0000e+00
        540      1.789    14.0947    14.0967   2.776566   2.780035     2.4354     2.2025     0.0057  0.2238181 0.0000e+00
        541      1.800    14.0944    14.0969   2.776649   2.780165     2.4339     2.2015     0.0057  0.2240541 0.0000e+00
        542      1.812    14.0942    14.0970   2.776731   2.780300     2.4324     2.2006     0.0057  0.2242722 0.0000e+00
        543      1.824    14.0939    14.0972   2.776808   2.780438     2.4310     2.1996     0.0057  0.2244741 0.0000e+00
        544      1.837    14.0936    14.0974   2.776881   2.780578     2.4295     2.1987     0.0057  0.2246619 0.0000e+00
        545      1.851    14.0933    14.0975   2.776946   2.780721     2.4281     2.1978     0.0057  0.2248378 0.0000e+00
        546      1.865    14.0929    14.0977   2.777003   2.780869     2.4266     2.1968     0.0057  0.2250022 0.0000e+00
        547      1.879    14.0926    14.0978   2.777052   2.781021     2.4252     2.1959     0.0057  0.2251555 0.0000e+00
        548      1.894    14.0922    14.0979   2.777092   2.781176     2.4238     2.1950     0.0057  0.2252985 0.0000e+00
        549      1.910    14.0918    14.0981   2.777123   2.781331     2.4224     2.1941     0.0057  0.2254333 0.0000e+00
        550      1.926    14.0914    14.0981   2.777145   2.781485     2.4210     2.1933     0.0057  0.2255615 0.0000e+00
        551      1.943    14.0910    14.0982   2.777159   2.781636     2.4196     2.1924     0.0057  0.2256833 0.0000e+00
        552      1.959    14.0907    14.0983   2.777165   2.781783     2.4183     2.1916     0.0057  0.2257986 0.0000e+00
        553      1.977    14.0903    14.0984   2.777163   2.781927     2.4169     2.1907     0.0057  0.2259082 0.0000e+00
        554      1.994    14.0899    14.0984   2.777155   2.782067     2.4156     2.1899     0.0057  0.2260129 0.0000e+00
        555      2.012    14.0896    14.0985   2.777140   2.782203     2.4142     2.1891     0.0057  0.2261135 0.0000e+00
        556      2.031    14.0894    14.0985   2.777118   2.782333     2.4129     2.1883     0.0057  0.2262105 0.0000e+00
        557      2.049    14.0891    14.0985   2.777090   2.782456     2.4116     2.1876     0.0057  0.2263048 0.0000e+00
        558      2.069    14.0890    14.0986   2.777055   2.782572     2.4103     2.1869     0.0057  0.2263968 0.0000e+00
        559      2.088    14.0889    14.0986   2.777015   2.782680     2.4091     2.1862     0.0057  0.2264874 0.0000e+00
        560      2.107    14.0888    14.0987   2.776969   2.782779     2.4078     2.1855     0.0057  0.2265771 0.0000e+00
        561      2.127    14.0888    14.0987   2.776919   2.782868     2.4066     2.1849     0.0060  0.2266648 0.0000e+00
        562      2.147    14.0889    14.0988   2.776865   2.782947     2.4054     2.1843     0.0064  0.2267470 0.0000e+00
        563      2.167    14.0891    14.0989   2.776809   2.783017     2.4042     2.1837     0.0064  0.2268207 0.0000e+00
        564      2.187    14.0893    14.0991   2.776750   2.783077     2.4030     2.1832     0.0062  0.2268857 0.0000e+00
        565      2.208    14.0896    14.0992   2.776689   2.783128     2.4019     2.1827     0.0064  0.2269423 0.0000e+00
        566      2.229    14.0899    14.0995   2.776627   2.783168     2.4008     2.1823     0.0064  0.2269911 0.0000e+00
        567      2.249    14.0903    14.0997   2.776564   2.783198     2.3997     2.1819     0.0064  0.2270323 0.0000e+00
        568      2.270    14.0908    14.1001   2.776501   2.783218     2.3986     2.1815     0.0064  0.2270662 0.0000e+00
        569      2.291    14.0914    14.1004   2.776439   2.783229     2.3976     2.1812     0.0064  0.2270930 0.0000e+00
        570      2.312    14.0921    14.1008   2.776377   2.783231     2.3966     2.1809     0.0064  0.2271130 0.0000e+00
        571      2.333    14.0928    14.1013   2.776317   2.783225     2.3956     2.1806     0.0064  0.2271263 0.0000e+00
        572      2.355    14.0935    14.1018   2.776257   2.783210     2.3946     2.1804     0.0064  0.2271329 0.0000e+00
        573      2.376    14.0944    14.1024   2.776200   2.783187     2.3937     2.1803     0.0064  0.2271329 0.0000e+00
        574      2.397    14.0952    14.1030   2.776144   2.783155     2.3928     2.1802     0.0064  0.2271264 0.0000e+00
        575      2.419    14.0962    14.1036   2.776090   2.783114     2.3919     2.1801     0.0064  0.2271132 0.0000e+00
        576      2.440    14.0971    14.1043   2.776038   2.783065     2.3911     2.1801     0.0064  0.2270934 0.0000e+00
        577      2.462    14.0981    14.1050   2.775988   2.783009     2.3902     2.1801     0.0064  0.2270666 0.0000e+00
        578      2.483    14.0992    14.1058   2.775940   2.782944     2.3895     2.1802     0.0064  0.2270328 0.0000e+00
        579      2.505    14.1002    14.1066   2.775894   2.782873     2.3887     2.1803     0.0064  0.2269918 0.0000e+00
        580      2.526    14.1013    14.1074   2.775852   2.782794     2.3879     2.1804     0.0064  0.2269431 0.0000e+00
        581      2.548    14.1025    14.1083   2.775812   2.782710     2.3872     2.1806     0.0064  0.2268866 0.0000e+00
        582      2.570    14.1036    14.1092   2.775775   2.782621     2.3865     2.1808     0.0064  0.2268217 0.0000e+00
        583      2.591    14.1048    14.1102   2.775741   2.782529     2.3859     2.1811     0.0064  0.2267481 0.0000e+00
        584      2.613    14.1060    14.1112   2.775709   2.782435     2.3852     2.1814     0.0064  0.2266653 0.0000e+00
        585      2.635    14.1073    14.1122   2.775679   2.782339     2.3846     2.1818     0.0064  0.2265726 0.0000e+00
        586      2.657    14.1086    14.1134   2.775652   2.782243     2.3840     2.1822     0.0064  0.2264711 0.0000e+00
        587      2.679    14.1100    14.1145   2.775627   2.782148     2.3834     2.1826     0.0066  0.2263653 0.0000e+00
        588      2.701    14.1115    14.1158   2.775604   2.782055     2.3828     2.1831     0.0066  0.2262594 0.0000e+00
        589      2.723    14.1130    14.1171   2.775583   2.781965     2.3823     2.1836     0.0066  0.2261544 0.0000e+00
        590      2.745    14.1147    14.1185   2.775565   2.781879     2.3818     2.1841     0.0066  0.2260496 0.0000e+00
        591      2.767    14.1164    14.1200   2.775550   2.781797     2.3813     2.1847     0.0066  0.2259443 0.0000e+00
        592      2.789    14.1182    14.1216   2.775536   2.781720     2.3808     2.1853     0.0066  0.2258378 0.0000e+00
        593      2.811    14.1202    14.1233   2.775524   2.781648     2.3804     2.1859     0.0064  0.2257292 0.0000e+00
        594      2.833    14.1223    14.1251   2.775514   2.781580     2.3799     2.1866     0.0066  0.2256179 0.0000e+00
        595      2.855    14.1245    14.1270   2.775506   2.781517     2.3795     2.1873     0.0066  0.2255030 0.0000e+00
        596      2.877    14.1268    14.1291   2.775499   2.781458     2.3791     2.1880     0.0066  0.2253839 0.0000e+00
        597      2.899    14.1293    14.1314   2.775493   2.781403     2.3787     2.1887     0.0066  0.2252595 0.0000e+00
        598      2.921    14.1318    14.1337   2.775489   2.781352     2.3783     2.1895     0.0066  0.2251291 0.0000e+00
        599      2.943    14.1345    14.1362   2.775485   2.781304     2.3780     2.1903     0.0064  0.2249918 0.0000e+00
        600      2.966    14.1373    14.1388   2.775481   2.781258     2.3776     2.1911     0.0066  0.2248466 0.0000e+00
        601      2.988    14.1402    14.1415   2.775479   2.781215     2.3772     2.1919     0.0066  0.2246925 0.0000e+00
        602      3.010    14.1432    14.1443   2.775478   2.781173     2.3769     2.1927     0.0066  0.2245285 0.0000e+00
        603      3.032    14.1463    14.1472   2.775478   2.781134     2.3765     2.1936     0.0064  0.2243533 0.0000e+00
        604      3.054    14.1495    14.1502   2.775479   2.781097     2.3762     2.1944     0.0066  0.2241658 0.0000e+00
        605      3.076    14.1528    14.1534   2.775480   2.781062     2.3759     2.1953     0.0066  0.2239646 0.0000e+00
        606      3.098    14.1563    14.1566   2.775482   2.781029     2.3755     2.1961     0.0066  0.2237485 0.0000e+00
        607      3.121    14.1598    14.1599   2.775485   2.780998     2.3752     2.1970     0.0066  0.2235158 0.0000e+00
        608      3.143    14.1634    14.1632   2.775489   2.780971     2.3749     2.1979     0.0066  0.2232649 0.0000e+00
        609      3.165    14.1670    14.1665   2.775493   2.780946     2.3745     2.1987     0.0066  0.2229941 0.0000e+00
        610      3.187    14.1707    14.1699   2.775499   2.780924     2.3742     2.1996     0.0066  0.2227016 0.0000e+00
        611      3.209    14.1744    14.1734   2.775506   2.780905     2.3738     2.2005     0.0066  0.2223860 0.0000e+00
        612      3.231    14.1781    14.1770   2.775513   2.780889     2.3734     2.2014     0.0064  0.2220538 0.0000e+00
        613      3.253    14.1818    14.1806   2.775522   2.780877     2.3731     2.2022     0.0062  0.2217205 0.0000e+00
        614      3.276    14.1856    14.1844   2.775531   2.780868     2.3727     2.2031     0.0064  0.2213973 0.0000e+00
        615      3.298    14.1893    14.1882   2.775542   2.780861     2.3723     2.2040     0.0064  0.2210853 0.0000e+00
        616      3.320    14.1930    14.1919   2.775554   2.780858     2.3719     2.2048     0.0062  0.2207825 0.0000e+00
        617      3.342    14.1968    14.1955   2.775567   2.780856     2.3716     2.2057     0.0064  0.2204866 0.0000e+00
        618      3.364    14.2007    14.1990   2.775581   2.780857     2.3712     2.2065     0.0064  0.2201957 0.0000e+00
        619      3.386    14.2047    14.2023   2.775598   2.780860     2.3707     2.2074     0.0064  0.2199077 0.0000e+00
        620      3.408    14.2088    14.2055   2.775616   2.780866     2.3703     2.2082     0.0064  0.2196206 0.0000e+00
        621      3.430    14.2130    14.2086   2.775635   2.780873     2.3699     2.2090     0.0064  0.2193325 0.0000e+00
        622      3.452    14.2175    14.2115   2.775656   2.780883     2.3695     2.2098     0.0064  0.2190412 0.0000e+00
        623      3.474    14.2222    14.2144   2.775679   2.780894     2.3690     2.2106     0.0064  0.2187448 0.0000e+00
        624      3.497    14.2271    14.2171   2.775705   2.780908     2.3686     2.2114     0.0064  0.2184413 0.0000e+00
        625      3.519    14.2322    14.2197   2.775732   2.780923     2.3681     2.2122     0.0064  0.2181284 0.0000e+00
        626      3.541    14.2376    14.2222   2.775761   2.780939     2.3676     2.2130     0.0064  0.2178041 0.0000e+00
        627      3.563    14.2432    14.2244   2.775793   2.780956     2.3671     2.2138     0.0064  0.2174661 0.0000e+00
        628      3.585    14.2490    14.2263   2.775825   2.780974     2.3666     2.2145     0.0064  0.2171111 0.0000e+00
        629      3.608    14.2550    14.2280   2.775860   2.780992     2.3661     2.2153     0.0064  0.2167360 0.0000e+00
        630      3.630    14.2611    14.2293   2.775895   2.781010     2.3656     2.2160     0.0064  0.2163388 0.0000e+00
        631      3.652    14.2673    14.2303   2.775931   2.781029     2.3651     2.2167     0.0064  0.2159177 0.0000e+00
        632      3.674    14.2736    14.2311   2.775968   2.781048     2.3645     2.2174     0.0064  0.2154697 0.0000e+00
        633      3.696    14.2800    14.2316   2.776006   2.781067     2.3640     2.2181     0.0064  0.2149918 0.0000e+00
        634      3.719    14.2863    14.2319   2.776044   2.781086     2.3634     2.2188     0.0064  0.2144806 0.0000e+00
        635      3.741    14.2926    14.2319   2.776083   2.781105     2.3628     2.2195     0.0064  0.2139325 0.0000e+00
        636      3.763    14.2987    14.2316   2.776122   2.781123     2.3622     2.2202     0.0064  0.2133438 0.0000e+00
        637      3.786    14.3049    14.2311   2.776161   2.781141     2.3616     2.2209     0.0062  0.2127214 0.0000e+00
        638      3.808    14.3109    14.2305   2.776200   2.781159     2.3610     2.2215     0.0062  0.2120958 0.0000e+00
        639      3.830    14.3170    14.2298   2.776239   2.781178     2.3603     2.2222     0.0062  0.2115017 0.0000e+00
        640      3.852    14.3231    14.2292   2.776279   2.781196     2.3597     2.2228     0.0062  0.2109528 0.0000e+00
        641      3.874    14.3291    14.2287   2.776318   2.781215     2.3590     2.2234     0.0062  0.2104462 0.0000e+00
        642      3.896    14.3350    14.2281   2.776357   2.781234     2.3583     2.2240     0.0062  0.2099757 0.0000e+00
        643      3.918    14.3409    14.2276   2.776395   2.781253     2.3577     2.2246     0.0062  0.2095373 0.0000e+00
        644      3.941    14.3468    14.2270   2.776433   2.781271     2.3570     2.2252     0.0062  0.2091270 0.0000e+00
        645      3.963    14.3526    14.2263   2.776470   2.781288     2.3562     2.2258     0.0062  0.2087420 0.0000e+00
        646      3.985    14.3584    14.2254   2.776508   2.781305     2.3555     2.2263     0.0060  0.2083813 0.0000e+00
        647      4.007    14.3642    14.2243   2.776545   2.781321     2.3548     2.2269     0.0060  0.2080433 0.0000e+00
        648      4.029    14.3699    14.2231   2.776581   2.781336     2.3541     2.2274     0.0060  0.2077256 0.0000e+00
        649      4.051    14.3754    14.2218   2.776616   2.781350     2.3534     2.2279     0.0062  0.2074251 0.0000e+00
        650      4.073    14.3809    14.2205   2.776651   2.781363     2.3526     2.2284     0.0062  0.2071390 0.0000e+00
        651      4.095    14.3863    14.2190   2.776684   2.781376     2.3518     2.2288     0.0062  0.2068660 0.0000e+00
        652      4.118    14.3916    14.2174   2.776717   2.781388     2.3511     2.2293     0.0062  0.2066042 0.0000e+00
        653      4.140    14.3969    14.2158   2.776750   2.781398     2.3503     2.2297     0.0060  0.2063502 0.0000e+00
        654      4.162    14.4022    14.2141   2.776782   2.781408     2.3495     2.2301     0.0060  0.2061022 0.0000e+00
        655      4.184    14.4075    14.2123   2.776814   2.781418     2.3487     2.2305     0.0062  0.2058593 0.0000e+00
        656      4.206    14.4127    14.2105   2.776846   2.781426     2.3479     2.2309     0.0062  0.2056198 0.0000e+00
        657      4.228    14.4178    14.2088   2.776877   2.781434     2.3471     2.2312     0.0062  0.2053821 0.0000e+00
        658      4.250    14.4227    14.2071   2.776907   2.781442     2.3463     2.2315     0.0062  0.2051444 0.0000e+00
        659      4.272    14.4273    14.2054   2.776936   2.781449     2.3455     2.2319     0.0060  0.2049061 0.0000e+00
        660      4.294    14.4317    14.2038   2.776964   2.781455     2.3447     2.2322     0.0062  0.2046653 0.0000e+00
        661      4.316    14.4358    14.2023   2.776990   2.781462     2.3438     2.2324     0.0060  0.2044189 0.0000e+00
        662      4.338    14.4395    14.2008   2.777016   2.781468     2.3430     2.2327     0.0060  0.2041658 0.0000e+00
        663      4.361    14.4429    14.1993   2.777040   2.781474     2.3422     2.2329     0.0059  0.2039111 0.0000e+00
        664      4.383    14.4460    14.1978   2.777063   2.781479     2.3413     2.2332     0.0059  0.2036633 0.0000e+00
        665      4.405    14.4488    14.1962   2.777085   2.781485     2.3405     2.2334     0.0059  0.2034283 0.0000e+00
        666      4.427    14.4512    14.1946   2.777106   2.781490     2.3396     2.2335     0.0059  0.2032069 0.0000e+00
        667      4.449    14.4534    14.1930   2.777127   2.781496     2.3388     2.2337     0.0059  0.2029969 0.0000e+00
        668      4.470    14.4553    14.1913   2.777147   2.781502     2.3379     2.2339     0.0059  0.2027958 0.0000e+00
        669      4.493    14.4569    14.1897   2.777166   2.781508     2.3371     2.2340     0.0059  0.2026032 0.0000e+00
        670      4.515    14.4584    14.1882   2.777184   2.781515     2.3362     2.2342     0.0059  0.2024185 0.0000e+00
        671      4.537    14.4597    14.1867   2.777203   2.781523     2.3354     2.2343     0.0059  0.2022396 0.0000e+00
        672      4.559    14.4610    14.1854   2.777222   2.781531     2.3345     2.2344     0.0059  0.2020644 0.0000e+00
        673      4.581    14.4622    14.1841   2.777241   2.781540     2.3337     2.2345     0.0059  0.2018925 0.0000e+00
        674      4.603    14.4634    14.1831   2.777261   2.781551     2.3328     2.2346     0.0059  0.2017237 0.0000e+00
        675      4.625    14.4646    14.1824   2.777281   2.781562     2.3320     2.2347     0.0059  0.2015558 0.0000e+00
        676      4.647    14.4659    14.1820   2.777302   2.781573     2.3311     2.2348     0.0059  0.2013869 0.0000e+00
        677      4.669    14.4671    14.1818   2.777324   2.781586     2.3303     2.2349     0.0059  0.2012158 0.0000e+00
        678      4.691    14.4684    14.1820   2.777347   2.781600     2.3294     2.2350     0.0059  0.2010413 0.0000e+00
        679      4.713    14.4697    14.1824   2.777370   2.781616     2.3286     2.2351     0.0059  0.2008621 0.0000e+00
        680      4.736    14.4710    14.1831   2.777395   2.781633     2.3277     2.2352     0.0059  0.2006771 0.0000e+00
        681      4.758    14.4723    14.1841   2.777422   2.781651     2.3269     2.2353     0.0059  0.2004858 0.0000e+00
        682      4.780    14.4736    14.1853   2.777450   2.781671     2.3261     2.2354     0.0059  0.2002877 0.0000e+00
        683      4.802    14.4749    14.1869   2.777479   2.781693     2.3253     2.2355     0.0059  0.2000805 0.0000e+00
        684      4.824    14.4763    14.1887   2.777509   2.781716     2.3244     2.2356     0.0059  0.1998621 0.0000e+00
        685      4.846    14.4776    14.1908   2.777540   2.781742     2.3236     2.2357     0.0059  0.1996317 0.0000e+00
        686      4.868    14.4791    14.1932   2.777573   2.781770     2.3228     2.2359     0.0059  0.1993894 0.0000e+00
        687      4.890    14.4806    14.1960   2.777607   2.781800     2.3220     2.2361     0.0059  0.1991344 0.0000e+00
        688      4.912    14.4822    14.1991   2.777643   2.781832     2.3212     2.2362     0.0057  0.1988674 0.0000e+00
        689      4.934    14.4840    14.2024   2.777680   2.781865     2.3204     2.2365     0.0055  0.1985943 0.0000e+00
        690      4.956    14.4859    14.2060   2.777719   2.781899     2.3196     2.2367     0.0055  0.1983216 0.0000e+00
        691      4.979    14.4879    14.2098   2.777760   2.781934     2.3188     2.2370     0.0055  0.1980526 0.0000e+00
        692      5.001    14.4900    14.2139   2.777803   2.781970     2.3181     2.2372     0.0055  0.1977870 0.0000e+00
        693      5.023    14.4923    14.2182   2.777847   2.782007     2.3173     2.2375     0.0055  0.1975223 0.0000e+00
        694      5.045    14.4948    14.2228   2.777892   2.782045     2.3165     2.2379     0.0055  0.1972555 0.0000e+00
        695      5.066    14.4974    14.2275   2.777939   2.782082     2.3158     2.2382     0.0055  0.1969851 0.0000e+00
        696      5.088    14.5001    14.2324   2.777985   2.782120     2.3150     2.2386     0.0055  0.1967089 0.0000e+00
        697      5.111    14.5030    14.2373   2.778033   2.782158     2.3143     2.2390     0.0055  0.1964252 0.0000e+00
        698      5.133    14.5061    14.2423   2.778080   2.782195     2.3135     2.2394     0.0055  0.1961319 0.0000e+00
        699      5.155    14.5093    14.2474   2.778128   2.782232     2.3128     2.2399     0.0055  0.1958270 0.0000e+00
        700      5.177    14.5126    14.2526   2.778177   2.782269     2.3120     2.2404     0.0055  0.1955084 0.0000e+00
        701      5.199    14.5162    14.2580   2.778226   2.782306     2.3113     2.2409     0.0055  0.1951739 0.0000e+00
        702      5.221    14.5200    14.2637   2.778276   2.782345     2.3106     2.2414     0.0055  0.1948211 0.0000e+00
        703      5.243    14.5240    14.2697   2.778326   2.782383     2.3099     2.2419     0.0055  0.1944476 0.0000e+00
        704      5.265    14.5282    14.2760   2.778377   2.782422     2.3092     2.2425     0.0055  0.1940508 0.0000e+00
        705      5.287    14.5326    14.2825   2.778428   2.782462     2.3085     2.2431     0.0055  0.1936280 0.0000e+00
        706      5.309    14.5373    14.2893   2.778480   2.782502     2.3078     2.2437     0.0055  0.1931761 0.0000e+00
        707      5.331    14.5422    14.2963   2.778532   2.782541     2.3071     2.2444     0.0053  0.1926920 0.0000e+00
        708      5.353    14.5474    14.3034   2.778585   2.782581     2.3064     2.2450     0.0055  0.1921725 0.0000e+00
        709      5.374    14.5529    14.3106   2.778638   2.782620     2.3058     2.2457     0.0055  0.1916138 0.0000e+00
        710      5.396    14.5587    14.3178   2.778692   2.782659     2.3051     2.2464     0.0055  0.1910121 0.0000e+00
        711      5.418    14.5647    14.3253   2.778746   2.782698     2.3044     2.2471     0.0055  0.1903640 0.0000e+00
        712      5.440    14.5709    14.3329   2.778800   2.782737     2.3038     2.2478     0.0055  0.1896659 0.0000e+00
        713      5.462    14.5771    14.3408   2.778853   2.782776     2.3031     2.2486     0.0055  0.1889154 0.0000e+00
        714      5.484    14.5835    14.3490   2.778906   2.782814     2.3025     2.2493     0.0053  0.1881338 0.0000e+00
        715      5.506    14.5901    14.3574   2.778960   2.782854     2.3018     2.2501     0.0051  0.1873707 0.0000e+00
        716      5.528    14.5967    14.3661   2.779013   2.782893     2.3012     2.2509     0.0051  0.1866633 0.0000e+00
        717      5.550    14.6035    14.3750   2.779066   2.782933     2.3006     2.2516     0.0051  0.1860178 0.0000e+00
        718      5.572    14.6104    14.3841   2.779119   2.782973     2.3000     2.2524     0.0051  0.1854287 0.0000e+00
        719      5.594    14.6173    14.3935   2.779171   2.783014     2.2993     2.2532     0.0051  0.1848904 0.0000e+00
        720      5.615    14.6242    14.4029   2.779224   2.783054     2.2987     2.2541     0.0051  0.1843982 0.0000e+00
        721      5.637    14.6309    14.4122   2.779276   2.783094     2.2981     2.2549     0.0051  0.1839486 0.0000e+00
        722      5.659    14.6374    14.4214   2.779328   2.783132     2.2975     2.2557     0.0051  0.1835386 0.0000e+00
        723      5.681    14.6437    14.4305   2.779378   2.783169     2.2970     2.2565     0.0051  0.1831653 0.0000e+00
        724      5.702    14.6497    14.4393   2.779427   2.783204     2.2964     2.2573     0.0051  0.1828261 0.0000e+00
        725      5.724    14.6552    14.4479   2.779475   2.783239     2.2958     2.2582     0.0051  0.1825187 0.0000e+00
        726      5.746    14.6602    14.4563   2.779520   2.783271     2.2952     2.2590     0.0051  0.1822409 0.0000e+00
        727      5.768    14.6648    14.4644   2.779564   2.783302     2.2946     2.2598     0.0051  0.1819907 0.0000e+00
        728      5.789    14.6691    14.4722   2.779606   2.783331     2.2941     2.2607     0.0051  0.1817665 0.0000e+00
        729      5.811    14.6732    14.4798   2.779647   2.783358     2.2935     2.2615     0.0051  0.1815667 0.0000e+00
        730      5.833    14.6771    14.4871   2.779687   2.783384     2.2930     2.2623     0.0051  0.1813898 0.0000e+00
        731      5.854    14.6810    14.4942   2.779728   2.783408     2.2925     2.2631     0.0051  0.1812347 0.0000e+00
        732      5.876    14.6847    14.5009   2.779767   2.783431     2.2919     2.2639     0.0051  0.1811003 0.0000e+00
        733      5.898    14.6883    14.5074   2.779806   2.783453     2.2914     2.2647     0.0051  0.1809856 0.0000e+00
        734      5.919    14.6916    14.5136   2.779845   2.783473     2.2909     2.2655     0.0051  0.1808899 0.0000e+00
        735      5.941    14.6947    14.5194   2.779883   2.783491     2.2903     2.2663     0.0051  0.1808124 0.0000e+00
        736      5.963    14.6974    14.5248   2.779921   2.783508     2.2898     2.2671     0.0051  0.1807527 0.0000e+00
        737      5.985    14.6998    14.5300   2.779958   2.783524     2.2893     2.2678     0.0053  0.1807103 0.0000e+00
        738      6.006    14.7019    14.5347   2.779994   2.783539     2.2888     2.2685     0.0051  0.1806849 0.0000e+00
        739      6.028    14.7037    14.5391   2.780031   2.783552     2.2883     2.2693     0.0051  0.1806747 0.0000e+00
        740      6.050    14.7053    14.5431   2.780066   2.783564     2.2878     2.2700     0.0049  0.1806736 0.0000e+00
        741      6.071    14.7066    14.5466   2.780102   2.783574     2.2873     2.2707     0.0049  0.1806723 0.0000e+00
        742      6.093    14.7078    14.5497   2.780138   2.783584     2.2868     2.2713     0.0049  0.1806648 0.0000e+00
        743      6.114    14.7088    14.5524   2.780174   2.783592     2.2863     2.2720     0.0049  0.1806520 0.0000e+00
        744      6.136    14.7097    14.5547   2.780211   2.783598     2.2858     2.2726     0.0049  0.1806354 0.0000e+00
        745      6.158    14.7105    14.5567   2.780248   2.783603     2.2854     2.2732     0.0049  0.1806149 0.0000e+00
        746      6.179    14.7115    14.5583   2.780287   2.783607     2.2849     2.2738     0.0049  0.1805904 0.0000e+00
        747      6.201    14.7126    14.5597   2.780326   2.783610     2.2844     2.2744     0.0049  0.1805617 0.0000e+00
        748      6.222    14.7140    14.5609   2.780368   2.783612     2.2840     2.2750     0.0049  0.1805286 0.0000e+00
        749      6.244    14.7157    14.5621   2.780411   2.783614     2.2835     2.2756     0.0049  0.1804909 0.0000e+00
        750      6.266    14.7176    14.5633   2.780457   2.783616     2.2830     2.2761     0.0049  0.1804483 0.0000e+00
        751      6.287    14.7198    14.5644   2.780503   2.783617     2.2826     2.2766     0.0049  0.1804005 0.0000e+00
        752      6.309    14.7221    14.5653   2.780551   2.783619     2.2821     2.2771     0.0049  0.1803472 0.0000e+00
        753      6.331    14.7243    14.5660   2.780598   2.783619     2.2817     2.2776     0.0049  0.1802881 0.0000e+00
        754      6.352    14.7265    14.5664   2.780646   2.783619     2.2813     2.2781     0.0049  0.1802226 0.0000e+00
        755      6.374    14.7287    14.5665   2.780693   2.783619     2.2808     2.2785     0.0049  0.1801504 0.0000e+00
        756      6.395    14.7309    14.5663   2.780741   2.783617     2.2804     2.2790     0.0049  0.1800709 0.0000e+00
        757      6.417    14.7331    14.5659   2.780790   2.783614     2.2799     2.2794     0.0049  0.1799837 0.0000e+00
        758      6.439    14.7353    14.5654   2.780838   2.783612     2.2795     2.2798     0.0049  0.1798880 0.0000e+00
        759      6.460    14.7375    14.5649   2.780886   2.783609     2.2791     2.2802     0.0049  0.1797832 0.0000e+00
        760      6.482    14.7399    14.5644   2.780935   2.783607     2.2787     2.2805     0.0049  0.1796687 0.0000e+00
        761      6.504    14.7422    14.5639   2.780984   2.783605     2.2782     2.2809     0.0049  0.1795435 0.0000e+00
        762      6.525    14.7447    14.5635   2.781034   2.783604     2.2778     2.2812     0.0049  0.1794069 0.0000e+00
        763      6.547    14.7472    14.5631   2.781083   2.783604     2.2774     2.2815     0.0049  0.1792578 0.0000e+00
        764      6.569    14.7498    14.5630   2.781133   2.783604     2.2770     2.2818     0.0049  0.1790953 0.0000e+00
        765      6.590    14.7526    14.5630   2.781184   2.783606     2.2766     2.2820     0.0048  0.1789215 0.0000e+00
        766      6.612    14.7556    14.5633   2.781236   2.783609     2.2762     2.2823     0.0048  0.1787439 0.0000e+00
        767      6.634    14.7588    14.5640   2.781288   2.783613     2.2758     2.2825     0.0048  0.1785679 0.0000e+00
        768      6.656    14.7620    14.5649   2.781340   2.783620     2.2754     2.2827     0.0046  0.1783941 0.0000e+00
        769      6.678    14.7651    14.5663   2.781391   2.783628     2.2750     2.2829     0.0048  0.1782211 0.0000e+00
        770      6.699    14.7682    14.5682   2.781442   2.783638     2.2746     2.2831     0.0048  0.1780479 0.0000e+00
        771      6.721    14.7711    14.5704   2.781492   2.783650     2.2742     2.2832     0.0048  0.1778732 0.0000e+00
        772      6.743    14.7740    14.5730   2.781541   2.783664     2.2738     2.2833     0.0048  0.1776957 0.0000e+00
        773      6.765    14.7768    14.5759   2.781589   2.783678     2.2734     2.2834     0.0048  0.1775144 0.0000e+00
        774      6.787    14.7796    14.5790   2.781636   2.783693     2.2730     2.2835     0.0048  0.1773278 0.0000e+00
        775      6.808    14.7824    14.5823   2.781683   2.783709     2.2727     2.2836     0.0048  0.1771347 0.0000e+00
        776      6.830    14.7853    14.5859   2.781728   2.783727     2.2723     2.2837     0.0048  0.1769338 0.0000e+00
        777      6.852    14.7882    14.5897   2.781773   2.783745     2.2719     2.2837     0.0048  0.1767236 0.0000e+00
        778      6.874    14.7912    14.5937   2.781818   2.783763     2.2716     2.2837     0.0048  0.1765027 0.0000e+00
        779      6.896    14.7942    14.5978   2.781861   2.783783     2.2712     2.2837     0.0048  0.1762696 0.0000e+00
        780      6.918    14.7973    14.6022   2.781904   2.783804     2.2709     2.2838     0.0048  0.1760226 0.0000e+00
        781      6.940    14.8005    14.6068   2.781947   2.783825     2.2705     2.2837     0.0048  0.1757601 0.0000e+00
        782      6.962    14.8038    14.6117   2.781989   2.783848     2.2702     2.2837     0.0048  0.1754801 0.0000e+00
        783      6.983    14.8074    14.6166   2.782032   2.783872     2.2699     2.2837     0.0048  0.1751808 0.0000e+00
        784      7.005    14.8111    14.6218   2.782074   2.783896     2.2695     2.2836     0.0048  0.1748600 0.0000e+00
        785      7.027    14.8150    14.6270   2.782117   2.783921     2.2692     2.2835     0.0048  0.1745156 0.0000e+00
        786      7.049    14.8190    14.6323   2.782159   2.783947     2.2689     2.2834     0.0048  0.1741451 0.0000e+00
        787      7.071    14.8230    14.6376   2.782200   2.783973     2.2686     2.2833     0.0048  0.1737459 0.0000e+00
        788      7.093    14.8269    14.6429   2.782241   2.783999     2.2682     2.2831     0.0048  0.1733154 0.0000e+00
        789      7.115    14.8309    14.6483   2.782282   2.784025     2.2679     2.2830     0.0048  0.1728504 0.0000e+00
        790      7.136    14.8349    14.6538   2.782323   2.784051     2.2676     2.2828     0.0048  0.1723546 0.0000e+00
        791      7.158    14.8389    14.6593   2.782364   2.784078     2.2673     2.2827     0.0046  0.1718516 0.0000e+00
        792      7.180    14.8429    14.6650   2.782404   2.784105     2.2670     2.2825     0.0048  0.1713754 0.0000e+00
        793      7.202    14.8469    14.6709   2.782445   2.784133     2.2667     2.2822     0.0048  0.1709422 0.0000e+00
        794      7.224    14.8510    14.6769   2.782486   2.784162     2.2664     2.2820     0.0048  0.1705506 0.0000e+00
        795      7.245    14.8550    14.6832   2.782526   2.784192     2.2661     2.2818     0.0046  0.1701971 0.0000e+00
        796      7.267    14.8592    14.6896   2.782567   2.784223     2.2658     2.2815     0.0048  0.1698793 0.0000e+00
        797      7.289    14.8634    14.6963   2.782608   2.784255     2.2655     2.2813     0.0048  0.1695948 0.0000e+00
        798      7.311    14.8676    14.7032   2.782649   2.784287     2.2653     2.2810     0.0048  0.1693418 0.0000e+00
        799      7.332    14.8718    14.7102   2.782691   2.784320     2.2650     2.2807     0.0048  0.1691185 0.0000e+00
        800      7.354    14.8761    14.7174   2.782733   2.784354     2.2647     2.2804     0.0048  0.1689233 0.0000e+00
        801      7.376    14.8802    14.7246   2.782774   2.784388     2.2644     2.2801     0.0048  0.1687549 0.0000e+00
        802      7.398    14.8843    14.7319   2.782815   2.784423     2.2642     2.2798     0.0048  0.1686120 0.0000e+00
        803      7.420    14.8882    14.7393   2.782856   2.784458     2.2639     2.2794     0.0048  0.1684938 0.0000e+00
        804      7.441    14.8919    14.7467   2.782897   2.784493     2.2637     2.2791     0.0048  0.1683993 0.0000e+00
        805      7.463    14.8956    14.7541   2.782938   2.784528     2.2634     2.2787     0.0048  0.1683280 0.0000e+00
        806      7.485    14.8992    14.7615   2.782979   2.784563     2.2632     2.2784     0.0048  0.1682793 0.0000e+00
        807      7.507    14.9027    14.7688   2.783020   2.784597     2.2630     2.2780     0.0048  0.1682528 0.0000e+00
        808      7.529    14.9063    14.7759   2.783061   2.784630     2.2628     2.2776     0.0048  0.1682477 0.0000e+00
        809      7.550    14.9099    14.7827   2.783103   2.784662     2.2626     2.2772     0.0048  0.1682629 0.0000e+00
        810      7.572    14.9135    14.7893   2.783146   2.784693     2.2623     2.2768     0.0048  0.1682994 0.0000e+00
        811      7.594    14.9173    14.7957   2.783190   2.784723     2.2621     2.2764     0.0048  0.1683575 0.0000e+00
        812      7.615    14.9212    14.8020   2.783235   2.784752     2.2619     2.2759     0.0048  0.1684358 0.0000e+00
        813      7.637    14.9252    14.8081   2.783281   2.784781     2.2617     2.2755     0.0048  0.1685350 0.0000e+00
        814      7.658    14.9293    14.8142   2.783329   2.784809     2.2615     2.2751     0.0048  0.1686574 0.0000e+00
        815      7.680    14.9336    14.8201   2.783377   2.784836     2.2613     2.2746     0.0048  0.1688039 0.0000e+00
        816      7.702    14.9380    14.8258   2.783426   2.784863     2.2612     2.2741     0.0046  0.1689695 0.0000e+00
        817      7.724    14.9423    14.8314   2.783476   2.784888     2.2610     2.2737     0.0046  0.1691435 0.0000e+00
        818      7.745    14.9466    14.8367   2.783526   2.784914     2.2608     2.2732     0.0046  0.1693161 0.0000e+00
        819      7.767    14.9507    14.8418   2.783575   2.784938     2.2606     2.2727     0.0046  0.1694842 0.0000e+00
        820      7.789    14.9547    14.8467   2.783624   2.784962     2.2604     2.2722     0.0046  0.1696490 0.0000e+00
        821      7.811    14.9587    14.8513   2.783673   2.784986     2.2603     2.2717     0.0046  0.1698117 0.0000e+00
        822      7.832    14.9626    14.8558   2.783722   2.785008     2.2601     2.2712     0.0046  0.1699733 0.0000e+00
        823      7.854    14.9664    14.8599   2.783770   2.785030     2.2599     2.2707     0.0046  0.1701333 0.0000e+00
        824      7.875    14.9702    14.8638   2.783819   2.785052     2.2598     2.2701     0.0046  0.1702911 0.0000e+00
        825      7.897    14.9739    14.8675   2.783868   2.785073     2.2596     2.2696     0.0046  0.1704496 0.0000e+00
        826      7.919    14.9776    14.8710   2.783917   2.785093     2.2595     2.2691     0.0046  0.1706131 0.0000e+00
        827      7.940    14.9812    14.8744   2.783967   2.785114     2.2593     2.2685     0.0046  0.1707846 0.0000e+00
        828      7.962    14.9848    14.8777   2.784017   2.785134     2.2591     2.2680     0.0046  0.1709635 0.0000e+00
        829      7.984    14.9884    14.8809   2.784066   2.785155     2.2590     2.2674     0.0046  0.1711477 0.0000e+00
        830      8.005    14.9919    14.8840   2.784115   2.785176     2.2588     2.2669     0.0046  0.1713384 0.0000e+00
        831      8.027    14.9953    14.8870   2.784164   2.785198     2.2586     2.2663     0.0046  0.1715388 0.0000e+00
        832      8.049    14.9987    14.8900   2.784211   2.785219     2.2585     2.2657     0.0046  0.1717484 0.0000e+00
        833      8.070    15.0018    14.8928   2.784258   2.785240     2.2583     2.2652     0.0046  0.1719688 0.0000e+00
        834      8.092    15.0048    14.8957   2.784303   2.785261     2.2582     2.2646     0.0046  0.1722049 0.0000e+00
        835      8.115    15.0075    14.8986   2.784347   2.785282     2.2580     2.2640     0.0046  0.1724583 0.0000e+00
        836      8.137    15.0099    14.9016   2.784389   2.785304     2.2579     2.2634     0.0046  0.1727290 0.0000e+00
        837      8.158    15.0123    14.9048   2.784431   2.785327     2.2577     2.2628     0.0046  0.1730190 0.0000e+00
        838      8.180    15.0146    14.9080   2.784472   2.785351     2.2576     2.2622     0.0046  0.1733287 0.0000e+00
        839      8.202    15.0168    14.9112   2.784513   2.785375     2.2575     2.2616     0.0046  0.1736600 0.0000e+00
        840      8.224    15.0191    14.9144   2.784554   2.785398     2.2573     2.2610     0.0046  0.1740188 0.0000e+00
        841      8.246    15.0215    14.9175   2.784594   2.785423     2.2572     2.2604     0.0046  0.1744033 0.0000e+00
        842      8.268    15.0241    14.9206   2.784636   2.785447     2.2570     2.2598     0.0048  0.1747949 0.0000e+00
        843      8.289    15.0270    14.9236   2.784677   2.785473     2.2569     2.2591     0.0048  0.1751700 0.0000e+00
        844      8.311    15.0301    14.9267   2.784718   2.785499     2.2568     2.2585     0.0048  0.1755194 0.0000e+00
        845      8.333    15.0335    14.9297   2.784760   2.785525     2.2567     2.2579     0.0048  0.1758454 0.0000e+00
        846      8.355    15.0372    14.9327   2.784801   2.785552     2.2565     2.2573     0.0048  0.1761512 0.0000e+00
        847      8.377    15.0410    14.9358   2.784843   2.785579     2.2564     2.2567     0.0048  0.1764390 0.0000e+00
        848      8.398    15.0452    14.9389   2.784884   2.785608     2.2563     2.2560     0.0048  0.1767106 0.0000e+00
        849      8.420    15.0496    14.9421   2.784926   2.785637     2.2562     2.2554     0.0048  0.1769681 0.0000e+00
        850      8.442    15.0542    14.9454   2.784968   2.785668     2.2561     2.2548     0.0048  0.1772131 0.0000e+00
        851      8.464    15.0593    14.9489   2.785010   2.785700     2.2560     2.2541     0.0048  0.1774475 0.0000e+00
        852      8.486    15.0646    14.9526   2.785053   2.785733     2.2558     2.2535     0.0048  0.1776728 0.0000e+00
        853      8.508    15.0702    14.9565   2.785096   2.785767     2.2557     2.2529     0.0048  0.1778906 0.0000e+00
        854      8.530    15.0760    14.9605   2.785140   2.785803     2.2556     2.2523     0.0048  0.1781024 0.0000e+00
        855      8.552    15.0818    14.9646   2.785183   2.785839     2.2555     2.2516     0.0048  0.1783097 0.0000e+00
        856      8.573    15.0877    14.9688   2.785225   2.785876     2.2554     2.2510     0.0048  0.1785139 0.0000e+00
        857      8.595    15.0936    14.9733   2.785266   2.785914     2.2553     2.2504     0.0048  0.1787165 0.0000e+00
        858      8.617    15.0996    14.9782   2.785307   2.785954     2.2551     2.2498     0.0048  0.1789189 0.0000e+00
        859      8.639    15.1056    14.9834   2.785347   2.785996     2.2550     2.2491     0.0048  0.1791224 0.0000e+00
        860      8.661    15.1117    14.9888   2.785387   2.786038     2.2549     2.2485     0.0048  0.1793285 0.0000e+00
        861      8.683    15.1177    14.9945   2.785427   2.786081     2.2548     2.2479     0.0048  0.1795386 0.0000e+00
        862      8.705    15.1236    15.0002   2.785464   2.786125     2.2547     2.2473     0.0048  0.1797542 0.0000e+00
        863      8.727    15.1294    15.0060   2.785501   2.786169     2.2546     2.2467     0.0048  0.1799767 0.0000e+00
        864      8.749    15.1350    15.0117   2.785537   2.786214     2.2545     2.2461     0.0048  0.1802078 0.0000e+00
        865      8.771    15.1405    15.0173   2.785572   2.786259     2.2544     2.2455     0.0048  0.1804491 0.0000e+00
        866      8.793    15.1457    15.0227   2.785606   2.786304     2.2542     2.2449     0.0048  0.1807013 0.0000e+00
        867      8.814    15.1508    15.0278   2.785640   2.786348     2.2541     2.2443     0.0046  0.1809585 0.0000e+00
        868      8.836    15.1556    15.0325   2.785672   2.786390     2.2540     2.2437     0.0046  0.1812065 0.0000e+00
        869      8.858    15.1602    15.0368   2.785704   2.786432     2.2539     2.2431     0.0046  0.1814342 0.0000e+00
        870      8.880    15.1647    15.0408   2.785735   2.786473     2.2538     2.2425     0.0046  0.1816398 0.0000e+00
        871      8.902    15.1689    15.0444   2.785766   2.786514     2.2537     2.2419     0.0046  0.1818248 0.0000e+00
        872      8.924    15.1729    15.0477   2.785796   2.786554     2.2536     2.2413     0.0046  0.1819903 0.0000e+00
        873      8.946    15.1767    15.0507   2.785826   2.786593     2.2535     2.2407     0.0046  0.1821376 0.0000e+00
        874      8.968    15.1803    15.0533   2.785855   2.786631     2.2534     2.2402     0.0046  0.1822677 0.0000e+00
        875      8.990    15.1836    15.0556   2.785883   2.786669     2.2533     2.2396     0.0046  0.1823815 0.0000e+00
        876      9.012    15.1866    15.0574   2.785912   2.786705     2.2532     2.2390     0.0046  0.1824798 0.0000e+00
        877      9.034    15.1895    15.0589   2.785940   2.786741     2.2531     2.2385     0.0046  0.1825632 0.0000e+00
        878      9.056    15.1922    15.0600   2.785968   2.786775     2.2529     2.2379     0.0046  0.1826324 0.0000e+00
        879      9.078    15.1948    15.0607   2.785996   2.786809     2.2528     2.2374     0.0046  0.1826878 0.0000e+00
        880      9.100    15.1972    15.0610   2.786025   2.786843     2.2527     2.2368     0.0046  0.1827298 0.0000e+00
        881      9.122    15.1994    15.0610   2.786052   2.786876     2.2526     2.2363     0.0046  0.1827588 0.0000e+00
        882      9.144    15.2014    15.0607   2.786080   2.786909     2.2525     2.2357     0.0044  0.1827749 0.0000e+00
        883      9.166    15.2031    15.0600   2.786107   2.786942     2.2524     2.2352     0.0046  0.1827781 0.0000e+00
        884      9.188    15.2047    15.0591   2.786135   2.786974     2.2522     2.2346     0.0046  0.1827687 0.0000e+00
        885      9.210    15.2063    15.0581   2.786162   2.787006     2.2521     2.2341     0.0046  0.1827464 0.0000e+00
        886      9.232    15.2077    15.0569   2.786190   2.787038     2.2520     2.2336     0.0046  0.1827111 0.0000e+00
        887      9.254    15.2090    15.0557   2.786217   2.787071     2.2519     2.2331     0.0046  0.1826626 0.0000e+00
        888      9.276    15.2102    15.0543   2.786245   2.787104     2.2518     2.2325     0.0046  0.1826005 0.0000e+00
        889      9.299    15.2113    15.0530   2.786272   2.787138     2.2517     2.2320     0.0046  0.1825245 0.0000e+00
        890      9.321    15.2123    15.0517   2.786300   2.787174     2.2516     2.2315     0.0046  0.1824348 0.0000e+00
        891      9.343    15.2132    15.0505   2.786327   2.787211     2.2515     2.2310     0.0046  0.1823316 0.0000e+00
        892      9.365    15.2141    15.0493   2.786354   2.787250     2.2514     2.2304     0.0046  0.1822143 0.0000e+00
        893      9.387    15.2150    15.0482   2.786382   2.787289     2.2513     2.2299     0.0048  0.1820846 0.0000e+00
        894      9.409    15.2159    15.0471   2.786409   2.787329     2.2512     2.2294     0.0048  0.1819466 0.0000e+00
        895      9.431    15.2168    15.0460   2.786437   2.787369     2.2511     2.2289     0.0048  0.1818019 0.0000e+00
        896      9.453    15.2175    15.0447   2.786465   2.787409     2.2510     2.2284     0.0048  0.1816488 0.0000e+00
        897      9.475    15.2183    15.0433   2.786493   2.787450     2.2509     2.2279     0.0048  0.1814852 0.0000e+00
        898      9.497    15.2193    15.0418   2.786521   2.787491     2.2508     2.2274     0.0048  0.1813110 0.0000e+00
        899      9.519    15.2203    15.0401   2.786549   2.787533     2.2507     2.2269     0.0048  0.1811256 0.0000e+00
        900      9.541    15.2215    15.0385   2.786577   2.787576     2.2506     2.2264     0.0048  0.1809271 0.0000e+00
        901      9.562    15.2226    15.0370   2.786605   2.787621     2.2505     2.2259     0.0048  0.1807131 0.0000e+00
        902      9.584    15.2237    15.0358   2.786632   2.787668     2.2504     2.2254     0.0048  0.1804822 0.0000e+00
        903      9.606    15.2247    15.0349   2.786659   2.787717     2.2503     2.2249     0.0048  0.1802336 0.0000e+00
        904      9.628    15.2257    15.0343   2.786685   2.787769     2.2502     2.2244     0.0048  0.1799664 0.0000e+00
        905      9.650    15.2267    15.0340   2.786711   2.787823     2.2501     2.2240     0.0048  0.1796780 0.0000e+00
        906      9.671    15.2277    15.0341   2.786737   2.787880     2.2500     2.2235     0.0048  0.1793654 0.0000e+00
        907      9.693    15.2289    15.0347   2.786762   2.787941     2.2499     2.2230     0.0048  0.1790265 0.0000e+00
        908      9.715    15.2303    15.0355   2.786788   2.788004     2.2498     2.2226     0.0048  0.1786590 0.0000e+00
        909      9.736    15.2317    15.0367   2.786813   2.788071     2.2497     2.2221     0.0048  0.1782602 0.0000e+00
        910      9.758    15.2331    15.0382   2.786837   2.788139     2.2496     2.2217     0.0048  0.1778275 0.0000e+00
        911      9.779    15.2343    15.0398   2.786860   2.788210     2.2495     2.2212     0.0048  0.1773578 0.0000e+00
        912      9.801    15.2355    15.0416   2.786882   2.788284     2.2494     2.2208     0.0048  0.1768477 0.0000e+00
        913      9.822    15.2365    15.0434   2.786904   2.788359     2.2493     2.2203     0.0048  0.1762939 0.0000e+00
        914      9.843    15.2372    15.0451   2.786925   2.788436     2.2493     2.2199     0.0048  0.1756924 0.0000e+00
        915      9.865    15.2376    15.0466   2.786944   2.788514     2.2492     2.2195     0.0048  0.1750391 0.0000e+00
        916      9.886    15.2378    15.0477   2.786964   2.788591     2.2491     2.2191     0.0048  0.1743293 0.0000e+00
        917      9.908    15.2378    15.0484   2.786982   2.788669     2.2490     2.2187     0.0048  0.1735591 0.0000e+00
        918      9.929    15.2376    15.0487   2.787000   2.788747     2.2489     2.2183     0.0048  0.1727417 0.0000e+00
        919      9.950    15.2373    15.0485   2.787017   2.788824     2.2489     2.2179     0.0048  0.1719164 0.0000e+00
        920      9.971    15.2368    15.0479   2.787034   2.788902     2.2488     2.2175     0.0048  0.1711159 0.0000e+00
        921      9.992    15.2362    15.0469   2.787051   2.788980     2.2487     2.2171     0.0048  0.1703454 0.0000e+00
        922     10.012    15.2353    15.0456   2.787067   2.789060     2.2486     2.2167     0.0048  0.1695989 0.0000e+00
        923     10.033    15.2341    15.0440   2.787083   2.789141     2.2486     2.2163     0.0048  0.1688702 0.0000e+00
        924     10.053    15.2327    15.0423   2.787099   2.789224     2.2485     2.2159     0.0048  0.1681544 0.0000e+00
        925     10.073    15.2310    15.0406   2.787113   2.789311     2.2484     2.2156     0.0048  0.1674463 0.0000e+00
        926     10.093    15.2289    15.0388   2.787125   2.789400     2.2484     2.2152     0.0048  0.1667412 0.0000e+00
        927     10.113    15.2265    15.0370   2.787137   2.789493     2.2483     2.2149     0.0048  0.1660341 0.0000e+00
        928     10.133    15.2236    15.0352   2.787146   2.789588     2.2482     2.2145     0.0048  0.1653200 0.0000e+00
        929     10.153    15.2203    15.0331   2.787155   2.789686     2.2482     2.2142     0.0048  0.1645941 0.0000e+00
        930     10.172    15.2165    15.0308   2.787163   2.789787     2.2481     2.2138     0.0048  0.1638512 0.0000e+00
        931     10.191    15.2125    15.0282   2.787169   2.789891     2.2481     2.2135     0.0048  0.1630862 0.0000e+00
        932     10.210    15.2081    15.0253   2.787174   2.789997     2.2480     2.2132     0.0048  0.1622938 0.0000e+00
        933     10.228    15.2034    15.0218   2.787178   2.790105     2.2480     2.2129     0.0048  0.1614685 0.0000e+00
        934     10.246    15.1985    15.0176   2.787182   2.790214     2.2479     2.2126     0.0046  0.1606044 0.0000e+00
        935     10.265    15.1933    15.0127   2.787185   2.790326     2.2478     2.2123     0.0048  0.1596957 0.0000e+00
        936     10.282    15.1879    15.0069   2.787188   2.790438     2.2478     2.2121     0.0048  0.1587359 0.0000e+00
        937     10.300    15.1822    15.0001   2.787190   2.790552     2.2477     2.2118     0.0048  0.1577185 0.0000e+00
        938     10.317    15.1761    14.9924   2.787191   2.790668     2.2477     2.2115     0.0048  0.1566363 0.0000e+00
        939     10.333    15.1695    14.9838   2.787190   2.790785     2.2476     2.2113     0.0048  0.1554817 0.0000e+00
        940     10.349    15.1624    14.9742   2.787187   2.790905     2.2476     2.2110     0.0048  0.1542469 0.0000e+00
        941     10.364    15.1545    14.9638   2.787181   2.791027     2.2475     2.2108     0.0048  0.1529231 0.0000e+00
        942     10.379    15.1460    14.9526   2.787173   2.791152     2.2475     2.2105     0.0048  0.1515012 0.0000e+00
        943     10.394    15.1366    14.9407   2.787161   2.791281     2.2474     2.2103     0.0051  0.1499917 0.0000e+00
        944     10.408    15.1264    14.9278   2.787146   2.791411     2.2474     2.2101     0.0059  0.1484621 0.0000e+00
        945     10.421    15.1152    14.9141   2.787127   2.791544     2.2473     2.2099     0.0060  0.1470082 0.0000e+00
        946     10.433    15.1030    14.8992   2.787103   2.791678     2.2473     2.2097     0.0060  0.1456790 0.0000e+00
        947     10.445    15.0894    14.8832   2.787075   2.791811     2.2472     2.2095     0.0060  0.1444749 0.0000e+00
        948     10.457    15.0744    14.8658   2.787041   2.791941     2.2472     2.2094     0.0060  0.1433831 0.0000e+00
        949     10.467    15.0577    14.8470   2.787001   2.792066     2.2472     2.2092     0.0060  0.1423927 0.0000e+00
        950     10.477    15.0394    14.8266   2.786955   2.792185     2.2471     2.2090     0.0060  0.1414960 0.0000e+00
        951     10.486    15.0200    14.8045   2.786905   2.792294     2.2471     2.2089     0.0060  0.1406866 0.0000e+00
        952     10.495    14.9998    14.7810   2.786850   2.792394     2.2471     2.2088     0.0060  0.1399598 0.0000e+00
        953     10.502    14.9792    14.7563   2.786793   2.792483     2.2471     2.2086     0.0060  0.1393114 0.0000e+00
        954     10.509    14.9589    14.7313   2.786737   2.792563     2.2471     2.2085     0.0060  0.1387369 0.0000e+00
        955     10.515    14.9391    14.7066   2.786682   2.792634     2.2470     2.2084     0.0060  0.1382323 0.0000e+00
        956     10.521    14.9203    14.6828   2.786628   2.792696     2.2470     2.2083     0.0060  0.1377932 0.0000e+00
        957     10.525    14.9026    14.6603   2.786577   2.792751     2.2470     2.2082     0.0060  0.1374166 0.0000e+00
        958     10.530    14.8864    14.6396   2.786530   2.792800     2.2470     2.2082     0.0060  0.1371016 0.0000e+00
        959     10.533    14.8721    14.6215   2.786488   2.792842     2.2470     2.2081     0.0060  0.1368468 0.0000e+00
        960     10.536    14.8601    14.6066   2.786452   2.792876     2.2470     2.2081     0.0060  0.1366504 0.0000e+00
        961     10.538    14.8509    14.5954   2.786423   2.792901     2.2470     2.2080     0.0060  0.1365111 0.0000e+00
        962     10.539    14.8450    14.5885   2.786405   2.792916     2.2470     2.2080     0.0060  0.1364279 0.0000e+00
        963     10.540    14.8429    14.5861   2.786398   2.792921     2.2470     2.2080     0.0060  0.1364002 0.0000e+00
